    HOUR (UT)   FLARE FACTOR    SKY TESTER    SUN TESTER
   11.78555584   -1.00000000   -1.00000000   -1.00000000
   11.86138916  176.26600647    0.00000000    0.00000000
   11.86527824  176.58200073    0.00000000    0.00000000
   11.87027836  193.44700623    0.00000000    0.00000000
   11.87416649  183.08700562    0.00000000    0.00000000
   11.87805557  186.17700195    0.00000000    0.00000000
   11.88277817  186.17700195    0.00000000    0.00000000
   11.88749981  188.19599915    0.00000000    0.00000000
   11.89055538  182.25199890    4.71999979    2.32999992
   11.89388847  177.39900208    4.71999979    2.32999992
   11.89472198  175.76300049    4.71999979    2.32999992
   11.89805508  177.33700562    4.71999979    2.32999992
   11.90111065  182.62500000    4.71999979    2.32999992
   11.90444374  190.02799988    4.71999979    2.32999992
   11.90777779  188.89100647    4.71999979    2.32999992
   11.91083336  188.96600342    4.71999979    2.32999992
   11.91416645  177.74400330    4.71999979    2.32999992
   11.91722298  181.25900269    4.71999979    2.32999992
   11.92055607  189.60899353    4.71999979    2.32999992
   11.92500019  189.60899353    4.71999979    2.32999992
   11.92888927  172.52000427    4.71999979    2.32999992
   11.93222237  180.83000183    4.71999979    2.32999992
   11.93555546  177.77299500    4.71999979    2.32999992
   11.93861103  177.36500549    4.71999979    2.32999992
   11.94194412  183.79400635    4.71999979    2.32999992
   11.94527817  197.27400208    4.71999979    2.32999992
   11.94833374  179.33200073    4.71999979    2.32999992
   11.95166683  182.32200623    4.71999979    2.32999992
   11.95472240  171.20700073    4.71999979    2.32999992
   11.95805550  175.30099487    4.71999979    2.32999992
   11.96111107  174.63600159    4.71999979    2.32999992
   11.96166611  175.66499329    4.71999979    2.32999992
   11.96777725  175.66499329    4.71999979    2.32999992
   11.97194386  189.40100098    4.71999979    2.32999992
   11.97499943  165.17500305    4.71999979    2.32999992
   11.97833252  166.33999634    4.71999979    2.32999992
   11.98166656  162.16200256    4.71999979    2.32999992
   11.98472214  164.61399841    4.71999979    2.32999992
   11.98805618  158.76899719    4.71999979    2.32999992
   11.99111176  167.51800537    4.71999979    2.32999992
   11.99527836  160.69999695    4.71999979    2.32999992
   11.99583340  167.20100403    4.71999979    2.32999992
   11.99916649  164.14900208    4.71999979    2.32999992
   12.00249958  165.36799622    4.71999979    2.32999992
   12.00583363  170.00500488    4.71999979    2.32999992
   12.01055527  170.00500488    4.71999979    2.32999992
   12.01472187  173.36599731    4.71999979    2.32999992
   12.01805496  176.16700745    4.71999979    2.32999992
   12.02111053  181.84199524    4.71999979    2.32999992
   12.02444458  174.61799622    4.71999979    2.32999992
   12.02750015  160.80499268    4.71999979    2.32999992
   12.02805519  176.20799255    4.71999979    2.32999992
   12.03138828  159.22700500    4.69999981    2.32999992
   12.03444481  171.35899353    4.19999981    2.42000008
   12.03777790  163.59100342    4.21999979    2.42000008
   12.04111195  168.83900452    4.21999979    2.44000006
   12.04416752  168.16499329    4.21999979    2.42000008
   12.04750061  169.68299866    4.23999977    2.42000008
   12.05333328  169.68299866    4.26000023    2.42000008
   12.05749989  170.46600342    4.26000023    2.42000008
   12.06083393  168.34599304    4.26000023    2.42000008
   12.06138897  170.79800415    4.26000023    2.42000008
   12.06444454  164.92300415    4.26000023    2.42000008
   12.06750011  165.78700256    4.26000023    2.42000008
   12.07083321  164.46699524    4.90999985    2.42000008
   12.07416630  165.06599426    4.90999985    2.51999998
   12.07722187  164.14999390    4.90999985    2.51999998
   12.08055592  167.75399780    4.90999985    2.53999996
   12.08388901  164.65600586    4.90999985    2.51999998
   12.08694458  172.39199829    4.90999985    2.53999996
   12.09027767  158.99600220    4.90999985    2.51999998
   12.09638882  158.99600220    4.90999985    2.53999996
   12.10027790  153.60899353    4.90999985    2.53999996
   12.10361195  152.20199585    4.90999985    2.53999996
   12.10694504  168.09199524    4.90999985    2.53999996
   12.11000061  155.93899536    4.90999985    2.53999996
   12.11333370  159.28799438    4.90999985    2.53999996
   12.11666679  153.65800476    4.90999985    2.53999996
   12.11972237  160.10299683    4.90999985    2.53999996
   12.12305546  156.65600586    4.90999985    2.53999996
   12.12611103  174.22200012    4.90999985    2.55999994
   12.12805557  161.90899658    4.90999985    2.55999994
   12.13000011  164.71000671    4.90999985    2.53999996
   12.13305569  160.20300293    4.90999985    2.55999994
   12.13916683  160.20300293    4.90999985    2.53999996
   12.14333344  155.11999512    4.90999985    2.55999994
   12.14638901  161.88800049    4.90999985    2.55999994
   12.14972210  161.57000732    4.90999985    2.55999994
   12.15305519  158.21299744    4.90999985    2.55999994
   12.15611076  149.89300537    4.90999985    2.55999994
   12.15944386  154.25000000    4.90999985    2.53999996
   12.16138840  150.49299622    4.90999985    2.55999994
   12.16305542  159.02499390    4.90999985    2.55999994
   12.16638851  168.32299805    4.90999985    2.55999994
   12.16944504  173.03300476    4.90999985    2.55999994
   12.17277813  177.94200134    4.90999985    2.55999994
   12.17583370  174.74499512    4.90999985    2.55999994
   12.18194485  174.74499512    4.90999985    2.55999994
   12.18611145  177.34800720    4.90999985    2.55999994
   12.18944454  171.45899963    4.90999985    2.57999992
   12.19250011  165.05499268    4.90999985    2.55999994
   12.19472218  164.67100525    4.90999985    2.57999992
   12.19611073  159.56799316    4.90999985    2.55999994
   12.19944477  154.44000244    4.90999985    2.57999992
   12.20249939  168.48500061    4.90999985    2.57999992
   12.20583344  160.52099609    4.90999985    2.55999994
   12.20888901  169.11999512    4.90999985    2.57999992
   12.21222210  161.53199768    4.90999985    2.57999992
   12.21555519  155.04600525    4.90999985    2.55999994
   12.21861076  151.80499268    4.90999985    2.57999992
   12.22472191  151.80499268    4.90999985    2.55999994
   12.22888851  143.57299805    4.90999985    2.57999992
   12.23222160  149.91799927    4.90999985    2.57999992
   12.23527813  143.75999451    4.90999985    2.57999992
   12.23861122  150.47700500    4.90999985    2.57999992
   12.24194431  149.89300537    4.90999985    2.57999992
   12.24499989  149.96499634    4.90999985    2.57999992
   12.24833393  147.32000732    4.90999985    2.57999992
   12.25166702  143.92199707    4.90999985    2.57999992
   12.25472260  135.38600159    4.90999985    2.59999990
   12.25805569  139.45700073    4.90999985    2.57999992
   12.26111126  143.24800110    4.90999985    2.57999992
   12.26166630  142.01100159    4.90999985    2.57999992
   12.26777744  142.01100159    4.90999985    2.57999992
   12.27166653  139.63299561    4.90999985    2.57999992
   12.27499962  139.79800415    4.90999985    2.57999992
   12.27833271  138.92399597    4.90999985    2.59999990
   12.28138828  140.66799927    4.90999985    2.57999992
   12.28472233  141.27799988    4.90999985    2.59999990
   12.28805637  133.07899475    4.90999985    2.59999990
   12.29111195  134.08299255    4.90999985    2.59999990
   12.29444504  133.54600525    4.90999985    2.59999990
   12.29500008  139.00999451    4.90999985    2.59999990
   12.29805565  140.37800598    4.90999985    2.59999990
   12.30111122  139.44299316    4.90999985    2.59999990
   12.30444431  139.65499878    4.90999985    2.59999990
   12.31055546  139.65499878    4.90999985    2.59999990
   12.31472206  142.15100098    4.90999985    2.59999990
   12.31777763  142.02600098    4.90999985    2.61999989
   12.32111073  141.99899292    4.90999985    2.61999989
   12.32444477  147.80999756    4.90999985    2.59999990
   12.32750034  149.78999329    4.90999985    2.61999989
   12.32833290  156.42300415    4.90999985    2.59999990
   12.33111095  146.46800232    4.90999985    2.61999989
   12.33416653  152.94299316    4.90999985    2.61999989
   12.33749962  145.68899536    4.90999985    2.59999990
   12.34083271  151.82899475    4.90999985    2.61999989
   12.34388828  155.29899597    4.90999985    2.61999989
   12.34722233  153.76699829    4.90999985    2.61999989
   12.35333347  153.76699829    4.90999985    2.61999989
   12.35750008  139.05099487    4.90999985    2.61999989
   12.36083412  144.18400574    4.90999985    2.61999989
   12.36166668  136.97500610    4.90999985    2.61999989
   12.36444473  129.80000305    4.90999985    2.61999989
   12.36777782  138.24299622    4.90999985    2.61999989
   12.37083340  141.68800354    4.90999985    2.61999989
   12.37416649  140.06700134    4.90999985    2.61999989
   12.37777805  144.00300598    4.90999985    2.61999989
   12.38083363  137.49800110    4.90999985    2.64000010
   12.38416672  141.21099854    4.90999985    2.61999989
   12.38722229  137.71699524    4.90999985    2.64000010
   12.39055538  133.47099304    4.90999985    2.61999989
   12.39611053  133.47099304    4.90999985    2.64000010
   12.40027714  133.79800415    4.90999985    2.59999990
   12.40361118  135.30099487    4.90999985    2.61999989
   12.40666676  140.74899292    4.90999985    2.61999989
   12.40999985  137.92100525    4.90999985    2.64000010
   12.41333294  139.75700378    4.90999985    2.64000010
   12.41638851  137.49499512    4.90999985    2.64000010
   12.41972256  147.21400452    4.90999985    2.64000010
   12.42305565  145.71099854    4.90999985    2.64000010
   12.42611122  155.61300659    4.90999985    2.64000010
   12.42833328  152.77299500    4.90999985    2.64000010
   12.42972279  134.27799988    4.90999985    2.64000010
   12.43277836  143.75700378    4.90999985    2.64000010
   12.43916702  143.75700378    4.90999985    2.64000010
   12.44305515  150.17399597    4.90999985    2.64000010
   12.44638920  143.10099792    4.90999985    2.64000010
   12.44972229  139.70300293    4.90999985    2.64000010
   12.45277786  135.07600403    4.90999985    2.64000010
   12.45611095  142.15699768    4.90999985    2.64000010
   12.45944405  139.83099365    4.90999985    2.64000010
   12.46166611  133.61399841    4.90999985    2.64000010
   12.46305561  150.03999329    4.90999985    2.64000010
   12.46638870  137.26699829    4.90999985    2.66000009
   12.46944427  134.45899963    4.90999985    2.66000009
   12.47277737  136.84100342    4.90999985    2.64000010
   12.47583294  145.83000183    4.90999985    2.64000010
   12.48194408  145.83000183    4.90999985    2.64000010
   12.48611164  133.16000366    4.90999985    2.66000009
   12.48916721  139.29400635    4.90999985    2.66000009
   12.49250031  151.41000366    4.90999985    2.64000010
   12.49499989  132.72900391    4.90999985    2.66000009
   12.49611092  130.24000549    4.90999985    2.66000009
   12.49916649  147.11700439    4.90999985    2.64000010
   12.50249958  143.95100403    4.90999985    2.66000009
   12.50583363  143.62899780    4.90999985    2.66000009
   12.50888920  157.75100708    4.90999985    2.66000009
   12.51222229  146.52099609    4.90999985    2.66000009
   12.51555538  147.98899841    4.90999985    2.66000009
   12.51861095  145.13499451    4.90999985    2.67000008
   12.52472210  145.13499451    4.90999985    2.66000009
   12.52888870  136.79600525    4.90999985    2.66000009
   12.53222179  148.87600708    4.90999985    2.66000009
   12.53527832  144.06199646    4.90999985    2.66000009
   12.53861141  148.58299255    4.90999985    2.66000009
   12.54194450  136.05200195    4.90999985    2.66000009
   12.54527855  135.74699402    4.90999985    2.66000009
   12.54861164  134.89900208    4.90999985    2.67000008
   12.55194473  146.20300293    4.90999985    2.66000009
   12.55500031  130.35499573    4.90999985    2.67000008
   12.55833340  136.15100098    4.90999985    2.67000008
   12.56138897  141.89399719    4.90999985    2.66000009
   12.56194496  137.27400208    4.90999985    2.67000008
   12.56777763  137.27400208    4.90999985    2.67000008
   12.57166672  131.24699402    4.90999985    2.66000009
   12.57499981  132.62899780    4.90999985    2.67000008
   12.57833290  138.69700623    4.90999985    2.67000008
   12.58138847  144.17700195    4.90999985    2.67000008
   12.58472157  139.01300049    4.90999985    2.67000008
   12.58805561  140.45599365    4.90999985    2.67000008
   12.59111118  140.62899780    4.90999985    2.67000008
   12.59444427  138.95700073    4.90999985    2.67000008
   12.59527779  135.52600098    4.90999985    2.67000008
   12.59805489  146.83099365    4.90999985    2.67000008
   12.60138893  145.91000366    4.90999985    2.67000008
   12.60444450  133.14300537    4.90999985    2.67000008
   12.61055565  133.14300537    4.90999985    2.67000008
   12.61472225  142.71899414    4.90999985    2.67000008
   12.61777782  143.73399353    4.90999985    2.67000008
   12.62111092  134.68200684    4.90999985    2.67000008
   12.62444496  132.40400696    4.90999985    2.69000006
   12.62750053  142.20799255    4.90999985    2.67000008
   12.62861156  132.12600708    4.90999985    2.69000006
   12.63111115  140.20399475    4.90999985    2.69000006
   12.63416672  138.35899353    4.90999985    2.67000008
   12.63749981  142.01600647    4.90999985    2.67000008
   12.64083290  140.60600281    4.90999985    2.69000006
   12.64388847  131.70799255    4.90999985    2.69000006
   12.64722252  138.18099976    4.90999985    2.69000006
   12.65333271  138.18099976    4.90999985    2.69000006
   12.65749931  136.90100098    4.90999985    2.69000006
   12.66083336  135.70899963    4.90999985    2.69000006
   12.66194439  129.41400146    4.90999985    2.69000006
   12.66444397  133.24299622    4.90999985    2.69000006
   12.66750050  147.74200439    4.90999985    2.69000006
   12.67083359  134.17999268    4.90999985    2.69000006
   12.67416668  137.53500366    4.90999985    2.69000006
   12.67722225  141.17199707    4.90999985    2.69000006
   12.68055630  143.67799377    4.90999985    2.69000006
   12.68388939  136.07200623    4.90999985    2.69000006
   12.68694496  139.79699707    4.90999985    2.69000006
   12.69027805  143.07200623    4.90999985    2.69000006
   12.69611073  143.07200623    4.90999985    2.69000006
   12.70027733  141.50300598    4.90999985    2.69000006
   12.70361137  133.40899658    4.90999985    2.71000004
   12.70666695  143.23500061    4.90999985    2.69000006
   12.71000004  146.04400635    4.90999985    2.69000006
   12.71333313  142.09500122    4.90999985    2.71000004
   12.71638870  135.02200317    4.90999985    2.71000004
   12.71972179  149.69599915    4.90999985    2.71000004
   12.72305489  148.02600098    4.90999985    2.69000006
   12.72611046  136.13600159    4.90999985    2.71000004
   12.72861099  138.50199890    4.90999985    2.69000006
   12.72972202  143.70100403    4.90999985    2.69000006
   12.73305511  139.42900085    4.90999985    2.71000004
   12.73916721  139.42900085    4.90999985    2.71000004
   12.74305534  143.49299622    4.90999985    2.69000006
   12.74638939  145.71200562    4.90999985    2.69000006
   12.74972248  142.75799561    4.90999985    2.71000004
   12.75277805  148.61300659    4.90999985    2.71000004
   12.75611115  139.03399658    4.90999985    2.71000004
   12.75944424  131.37600708    4.90999985    2.71000004
   12.76194477  140.38299561    4.90999985    2.71000004
   12.76305580  141.16799927    4.90999985    2.71000004
   12.76638889  138.60299683    4.90999985    2.71000004
   12.76944447  134.78500366    4.90999985    2.71000004
   12.77277756  128.32499695    4.90999985    2.71000004
   12.77583313  134.26699829    4.90999985    2.71000004
   12.78194427  134.26699829    4.90999985    2.71000004
   12.78611183  141.59199524    4.90999985    2.71000004
   12.78916740  132.61500549    4.90999985    2.71000004
   12.79250050  148.46800232    4.90999985    2.71000004
   12.79527855  145.33799744    4.90999985    2.71000004
   12.79611111  139.58799744    4.90999985    2.71000004
   12.79944515  145.50599670    4.90999985    2.71000004
   12.80249977  141.13299561    4.90999985    2.73000002
   12.80583382  148.01499939    4.90999985    2.71000004
   12.80888939  145.67599487    4.90999985    2.71000004
   12.81222248  143.89799500    4.90999985    2.71000004
   12.81555557  141.25500488    4.90999985    2.71000004
   12.81861115  136.55400085    4.90999985    2.71000004
   12.82472229  136.55400085    4.90999985    2.71000004
   12.82888889  155.57600403    4.90999985    2.71000004
   12.83222198  157.76400757    4.90999985    2.71000004
   12.83527756  151.36300659    4.90999985    2.71000004
   12.83861065  151.90600586    4.90999985    2.71000004
   12.84166622  149.01600647    4.90999985    2.71000004
   12.84499931  158.50100708    4.90999985    2.73000002
   12.84833336  162.00900269    4.90999985    2.73000002
   12.85138893  149.58900452    4.90999985    2.73000002
   12.85472298  266.84399414    4.90999985    2.73000002
   12.85777855   -1.00000000    4.90999985    2.73000002
   12.86111164  160.83900452    4.90999985    2.73000002
   12.87805557  144.75599670    4.90999985    2.71000004
   12.88222218  144.75599670    4.90999985    2.73000002
   12.88638878  137.11599731    4.90999985    2.73000002
   12.88972187  144.21200562    4.90999985    2.73000002
   12.89277744  151.65699768    4.90999985    2.73000002
   12.89611053  155.66000366    4.90999985    2.73000002
   12.89916611  150.28300476    4.90999985    2.73000002
   12.90249920  143.18299866    4.90999985    2.73000002
   12.90583324  149.94799805    4.90999985    2.73000002
   12.90888882  145.22200012    4.90999985    2.73000002
   12.91138840  153.50999451    4.90999985    2.73000002
   12.91277695  158.91299438    4.90999985    2.73000002
   12.91583252  158.05299377    4.90999985    2.73000002
   12.91916656  149.06700134    4.90999985    2.75000000
   12.92500019  149.06700134    4.90999985    2.73000002
   12.92916679  155.06100464    4.90999985    2.73000002
   12.93249989  154.26600647    4.90999985    2.73000002
   12.93555546  156.96499634    4.90999985    2.73000002
   12.93888855  152.33900452    4.90999985    2.73000002
   12.94222260  153.82200623    4.90999985    2.75000000
   12.94472218  155.37899780    4.90999985    2.75000000
   12.94583321  168.73100281    4.90999985    2.73000002
   12.94888878  151.07499695    4.90999985    2.75000000
   12.95222187  154.44400024    4.90999985    2.75000000
   12.95527744  150.75999451    4.90999985    2.75000000
   12.95861053  155.94799805    4.90999985    2.73000002
   12.96194458  152.43200684    4.90999985    2.73000002
   12.96777725  152.43200684    4.90999985    2.73000002
   12.97194386  149.14500427    4.90999985    2.75000000
   12.97527695  153.09199524    4.90999985    2.75000000
   12.97805500  138.74899292    4.90999985    2.75000000
   12.97888851  144.32299805    4.90999985    2.75000000
   12.98194408  148.30599976    4.90999985    2.75000000
   12.98527813  152.96899414    4.90999985    2.75000000
   12.98833370  145.67700195    4.90999985    2.75000000
   12.99166679  150.77000427    4.90999985    2.75000000
   12.99499989  158.24400330    4.90999985    2.75000000
   12.99805546  142.29299927    4.90999985    2.75000000
   13.00138855  144.31700134    4.90999985    2.75000000
   13.00472260  154.25900269    4.90999985    2.75000000
   13.01083374  154.25900269    4.90999985    2.75000000
   13.01500034  150.55900574    4.90999985    2.75000000
   13.01805496  153.20300293    4.90999985    2.75000000
   13.02138901  152.66400146    4.90999985    2.75000000
   13.02472210  152.20599365    4.90999985    2.75000000
   13.02777767  145.11700439    4.90999985    2.76999998
   13.03111076  147.88400269    4.90999985    2.75000000
   13.03416729  153.72399902    4.90999985    2.75000000
   13.03750038  130.68400574    4.90999985    2.75000000
   13.04083347  155.32299805    4.90999985    2.76999998
   13.04388905  151.49600220    4.90999985    2.76999998
   13.04583359  152.28900146    4.90999985    2.76999998
   13.04750061  154.35800171    4.90999985    2.75000000
   13.05361176  154.35800171    4.90999985    2.76999998
   13.05777836  153.07699585    4.90999985    2.76999998
   13.06083393  167.39100647    4.90999985    2.76999998
   13.06416702  153.37199402    4.90999985    2.76999998
   13.06750011  157.49600220    4.90999985    2.76999998
   13.07055569  157.39300537    4.90999985    2.76999998
   13.07388878  150.85499573    4.90999985    2.76999998
   13.07722187  153.54699707    4.90999985    2.76999998
   13.07916641  157.99699402    4.90999985    2.76999998
   13.08055592  151.41499329    4.90999985    2.76999998
   13.08388901  149.43400574    4.90999985    2.76999998
   13.08722210  147.69500732    4.90999985    2.76999998
   13.09027767  146.78399658    4.90999985    2.76999998
   13.09638882  146.78399658    4.90999985    2.78999996
   13.10055637  153.07099915    4.90999985    2.76999998
   13.10388947  151.64399719    4.90999985    2.76999998
   13.10694504  150.91499329    4.90999985    2.76999998
   13.11027813  144.56500244    4.90999985    2.76999998
   13.11277771  146.75999451    4.90999985    2.76999998
   13.11388969  151.79400635    4.90999985    2.76999998
   13.11722279  146.61700439    4.90999985    2.76999998
   13.12027836  136.63900757    4.90999985    2.78999996
   13.12361145  151.78500366    4.90999985    2.78999996
   13.12694454  157.60000610    4.90999985    2.78999996
   13.13000011  152.24099731    4.90999985    2.76999998
   13.13333321  154.98399353    4.90999985    2.76999998
   13.13916683  154.98399353    4.90999985    2.76999998
   13.14333344  152.20899963    4.90999985    2.76999998
   13.14611053  138.44500732    4.90999985    2.78999996
   13.14694405  146.25500488    4.90999985    2.78999996
   13.15027714  154.06799316    4.90999985    2.76999998
   13.15333271  154.85200500    4.90999985    2.76999998
   13.15666676  154.34899902    4.90999985    2.78999996
   13.15999985  149.00100708    4.90999985    2.76999998
   13.16305542  140.87399292    4.90999985    2.78999996
   13.16638851  145.42399597    4.90999985    2.78999996
   13.16944504  151.00100708    4.90999985    2.76999998
   13.17277813  146.29200745    4.90999985    2.78999996
   13.17611122  148.87800598    4.90999985    2.78999996
   13.18222237  148.87800598    4.90999985    2.76999998
   13.18638897  155.87600708    4.90999985    2.78999996
   13.18944454  149.62899780    4.90999985    2.78999996
   13.19277763  161.76800537    4.90999985    2.78999996
   13.19611073  147.58099365    4.90999985    2.76999998
   13.19916630  153.61300659    4.90999985    2.76999998
   13.20249939  154.55499268    4.90999985    2.76999998
   13.20583344  155.26899719    4.90999985    2.76999998
   13.20888901  150.13800049    4.90999985    2.76999998
   13.21222210  157.95399475    4.90999985    2.76999998
   13.21305561  147.36999512    4.90999985    2.76999998
   13.21583271  144.30200195    4.90999985    2.78999996
   13.21888828  150.70500183    4.90999985    2.78999996
   13.22499943  150.70500183    4.90999985    2.78999996
   13.22916603  151.56199646    4.90999985    2.78999996
   13.23249912  149.78500366    4.90999985    2.78999996
   13.23555565  153.59399414    4.90999985    2.78999996
   13.23888874  139.30799866    4.90999985    2.78999996
   13.24194431  148.36900330    4.90999985    2.78999996
   13.24527836  153.66999817    4.90999985    2.78999996
   13.24638939  152.75300598    4.90999985    2.78999996
   13.24888897  150.92100525    4.90999985    2.78999996
   13.25194454  149.24899292    4.90999985    2.78999996
   13.25527763  145.79499817    4.90999985    2.78999996
   13.25861073  146.34500122    4.90999985    2.78999996
   13.26166630  150.74499512    4.90999985    2.78999996
   13.26777744  150.74499512    4.90999985    2.78999996
   13.27194405  144.70899963    4.90999985    2.78999996
   13.27527714  148.20799255    4.90999985    2.78999996
   13.27833271  145.07099915    4.90999985    2.78999996
   13.27999973  143.32000732    4.90999985    2.78999996
   13.28222179  150.33299255    4.90999985    2.76999998
   13.28527832  161.46299744    4.90999985    2.78999996
   13.28861141  152.43600464    4.90999985    2.78999996
   13.29166698  154.16900635    4.90999985    2.80999994
   13.29500008  162.89799500    4.90999985    2.80999994
   13.29833412  144.41499329    4.90999985    2.78999996
   13.30138874  150.10099792    4.90999985    2.80999994
   13.30472279  158.29800415    4.90999985    2.80999994
   13.31083393  158.29800415    4.90999985    2.78999996
   13.31472206  157.30599976    4.90999985    2.80999994
   13.31805515  157.99499512    4.90999985    2.78999996
   13.32138920  153.81700134    4.90999985    2.78999996
   13.32444477  150.08700562    4.90999985    2.78999996
   13.32777786  145.70500183    4.90999985    2.78999996
   13.33111095  154.52499390    4.90999985    2.78999996
   13.33416653  153.93200684    4.90999985    2.80999994
   13.33749962  157.23500061    4.90999985    2.78999996
   13.34055519  171.21299744    4.90999985    2.80999994
   13.34388828  173.27900696    4.90999985    2.78999996
   13.34666634  172.12199402    4.90999985    2.78999996
   13.34749985  165.96499634    4.90999985    2.78999996
   13.35361195  165.96499634    4.90999985    2.80999994
   13.35777855  157.15400696    4.90999985    2.80999994
   13.36083412  156.36999512    4.90999985    2.80999994
   13.36416721  147.32299805    4.90999985    2.78999996
   13.36750031  142.99800110    4.90999985    2.80999994
   13.37055588  144.32299805    4.90999985    2.80999994
   13.37388897  150.22799683    4.90999985    2.78999996
   13.37694454  141.94799805    4.90999985    2.78999996
   13.38000011  145.61000061    4.90999985    2.80999994
   13.38055611  141.67100525    4.90999985    2.80999994
   13.38388920  143.89300537    4.90999985    2.80999994
   13.38722229  140.78399658    4.90999985    2.80999994
   13.39027786  148.42399597    4.90999985    2.80999994
   13.39638901  148.42399597    4.90999985    2.80999994
   13.40055561  140.28599548    4.90999985    2.80999994
   13.40388870  138.38800049    4.90999985    2.78999996
   13.40694427  145.21600342    4.90999985    2.80999994
   13.41027737  148.35200500    4.90999985    2.80999994
   13.41333294  144.48599243    4.90999985    2.80999994
   13.41361046  145.41799927    4.90999985    2.80999994
   13.41694450  140.83500671    4.90999985    2.80999994
   13.42027855  145.66499329    4.90999985    2.80999994
   13.42333412  140.29100037    4.90999985    2.80999994
   13.42666721  139.15800476    4.90999985    2.82999992
   13.43000031  151.08900452    4.90999985    2.80999994
   13.43305588  148.36799622    4.90999985    2.82999992
   13.43916702  148.36799622    4.90999985    2.80999994
   13.44333363  137.36599731    4.90999985    2.80999994
   13.44666672  143.24099731    4.90999985    2.80999994
   13.44694424  146.56199646    4.90999985    2.80999994
   13.45027733  140.64300537    4.90999985    2.82999992
   13.45361137  150.38299561    4.90999985    2.82999992
   13.45666695  143.24699402    4.90999985    2.80999994
   13.46000004  145.86700439    4.90999985    2.80999994
   13.46333313  142.57000732    4.90999985    2.82999992
   13.46638870  143.42999268    4.90999985    2.82999992
   13.46972179  141.58000183    4.90999985    2.82999992
   13.47277737  140.67399597    4.90999985    2.82999992
   13.47611046  142.19299316    4.90999985    2.80999994
   13.48194408  142.19299316    4.90999985    2.82999992
   13.48611164  137.15600586    4.90999985    2.80999994
   13.48944473  141.49499512    4.90999985    2.82999992
   13.49250031  139.55799866    4.90999985    2.80999994
   13.49583340  152.39300537    4.90999985    2.82999992
   13.49916649  141.76100159    4.90999985    2.80999994
   13.50222206  149.34700012    4.90999985    2.82999992
   13.50555515  140.86900330    4.90999985    2.82999992
   13.50888920  152.67399597    4.90999985    2.82999992
   13.51194477  153.50599670    4.90999985    2.80999994
   13.51333332  143.23899841    4.90999985    2.82999992
   13.51555538  154.47300720    4.90999985    2.82999992
   13.51888847  148.38600159    4.90999985    2.82999992
   13.52499962  148.38600159    4.90999985    2.82999992
   13.52916622  145.71200562    4.90999985    2.82999992
   13.53222179  146.90899658    4.90999985    2.82999992
   13.53555584  143.94799805    4.90999985    2.82999992
   13.53888893  139.84899902    4.90999985    2.82999992
   13.54194450  140.31900024    4.90999985    2.82999992
   13.54527855  145.20899963    4.90999985    2.82999992
   13.54666710  138.53300476    4.90999985    2.80999994
   13.54888916  146.52200317    4.90999985    2.82999992
   13.55194473  144.19799805    4.90999985    2.82999992
   13.55527782  141.94200134    4.90999985    2.82999992
   13.55861092  138.70899963    4.90999985    2.82999992
   13.56166649  145.90899658    4.90999985    2.84999990
   13.56777763  145.90899658    4.90999985    2.82999992
   13.57194424  141.73599243    4.90999985    2.82999992
   13.57499981  141.39999390    4.90999985    2.82999992
   13.57833290  148.11999512    4.90999985    2.82999992
   13.58027744  143.71899414    4.90999985    2.82999992
   13.58194447  152.62500000    4.90999985    2.82999992
   13.58527756  155.13099670    4.90999985    2.82999992
   13.58861065  151.38499451    4.90999985    2.82999992
   13.59166622  156.48500061    4.90999985    2.84999990
   13.59499931  156.10099792    4.90999985    2.82999992
   13.59805489  151.72700500    4.90999985    2.84999990
   13.60138893  138.36300659    4.90999985    2.82999992
   13.60472298  152.92999268    4.90999985    2.84999990
   13.61055565  152.92999268    4.90999985    2.82999992
   13.61472225  148.28999329    4.90999985    2.82999992
   13.61805534  153.21800232    4.90999985    2.82999992
   13.62111092  154.60499573    4.90999985    2.82999992
   13.62444496  157.43899536    4.90999985    2.82999992
   13.62777805  149.14500427    4.90999985    2.82999992
   13.63083363  150.72200012    4.90999985    2.84999990
   13.63416672  147.63600159    4.90999985    2.84999990
   13.63722229  145.76400757    4.90999985    2.84999990
   13.64055538  147.40400696    4.90999985    2.84999990
   13.64388847  146.36799622    4.90999985    2.82999992
   13.64694405  149.26300049    4.90999985    2.84999990
   13.64722252  141.52999878    4.90999985    2.84999990
   13.65333271  141.52999878    4.90999985    2.84999990
   13.65749931  154.78199768    4.90999985    2.84999990
   13.66083336  143.82000732    4.90999985    2.82999992
   13.66416645  146.00100708    4.90999985    2.82999992
   13.66722298  159.60899353    4.90999985    2.84999990
   13.67055607  162.05499268    4.90999985    2.84999990
   13.67361164  162.36599731    4.90999985    2.84999990
   13.67694473  152.89500427    4.90999985    2.84999990
   13.68027782  153.41600037    4.90999985    2.84999990
   13.68055630  167.20199585    4.90999985    2.84999990
   13.68388939  163.75399780    4.90999985    2.84999990
   13.68722248  156.15199280    4.90999985    2.84999990
   13.69027805  150.68800354    4.90999985    2.84999990
   13.69638920  150.68800354    4.90999985    2.84999990
   13.70055580  150.10899353    4.90999985    2.84999990
   13.70361137  153.32600403    4.90999985    2.86999989
   13.70694447  163.95500183    4.90999985    2.84999990
   13.71000004  154.13200378    4.90999985    2.84999990
   13.71333313  152.25300598    4.90999985    2.84999990
   13.71388912  164.53300476    4.90999985    2.82999992
   13.71694374  156.19999695    4.90999985    2.84999990
   13.72027779  155.02099609    4.90999985    2.84999990
   13.72361088  165.07099915    4.90999985    2.84999990
   13.72666645  152.88200378    4.90999985    2.84999990
   13.72999954  151.80999756    4.90999985    2.84999990
   13.73333359  151.93099976    4.90999985    2.84999990
   13.73916721  151.93099976    4.90999985    2.86999989
   13.74333382  149.13699341    4.90999985    2.84999990
   13.74638939  153.76899719    4.90999985    2.84999990
   13.74722290  154.02200317    4.90999985    2.84999990
   13.75000000  141.93699646    4.90999985    2.84999990
   13.75333309  156.05700684    4.90999985    2.84999990
   13.75666714  143.26800537    4.90999985    2.84999990
   13.75972176  151.24000549    4.90999985    2.84999990
   13.76305580  157.96699524    4.90999985    2.84999990
   13.76638889  160.40400696    4.90999985    2.84999990
   13.76944447  160.49299622    4.90999985    2.84999990
   13.77277756  164.52799988    4.90999985    2.86999989
   13.77583313  155.47200012    4.90999985    2.84999990
   13.78194427  155.47200012    4.90999985    2.84999990
   13.78638935  155.16400146    4.90999985    2.84999990
   13.78972244  149.81900024    4.90999985    2.84999990
   13.79277802  154.88900757    4.90999985    2.84999990
   13.79611111  159.35699463    4.90999985    2.86999989
   13.79944515  148.21499634    4.90999985    2.84999990
   13.80249977  155.87199402    4.90999985    2.84999990
   13.80583382  163.50700378    4.90999985    2.86999989
   13.80916691  149.83000183    4.90999985    2.86999989
   13.81222248  151.54699707    4.90999985    2.86999989
   13.81388950  148.32400513    4.90999985    2.84999990
   13.81611156  154.82400513    4.90999985    2.84999990
   13.81916618  151.19799805    4.90999985    2.86999989
   13.82499981  151.19799805    4.90999985    2.84999990
   13.82888889  158.31399536    4.90999985    2.84999990
   13.83222198  146.31599426    4.90999985    2.84999990
   13.83555508  168.64100647    4.90999985    2.84999990
   13.83861065  166.39900208    4.90999985    2.84999990
   13.84194374  160.82800293    4.90999985    2.86999989
   13.84527779  157.92900085    4.90999985    2.86999989
   13.84722233  157.22300720    4.90999985    2.86999989
   13.84888840  151.76199341    4.90999985    2.84999990
   13.85194492  163.49299622    4.90999985    2.86999989
   13.85527802  159.05799866    4.90999985    2.86999989
   13.85833359  159.94099426    4.90999985    2.86999989
   13.86166668  152.65699768    4.90999985    2.86999989
   13.86777782  152.65699768    4.90999985    2.84999990
   13.87194443  163.36900330    4.90999985    2.84999990
   13.87500000  154.55099487    4.90999985    2.86999989
   13.87833309  165.16400146    4.90999985    2.86999989
   13.89555550  160.48300171    4.90999985    2.86999989
   13.89833355  160.77900696    4.90999985    2.86999989
   13.90138817  148.28300476    4.90999985    2.86999989
   13.90472221  161.52499390    4.90999985    2.86999989
   13.91055489  161.52499390    4.90999985    2.86999989
   13.91472149  162.85899353    4.90999985    2.86999989
   13.91805553  167.93899536    4.90999985    2.86999989
   13.92138958  154.90299988    4.90999985    2.86999989
   13.92444515  157.82299805    4.90999985    2.86999989
   13.92777824  160.59899902    4.90999985    2.86999989
   13.92888927  156.94599915    4.90999985    2.86999989
   13.93111134  155.81599426    4.90999985    2.86999989
   13.93444443  150.67300415    4.90999985    2.86999989
   13.93777752  147.65299988    4.90999985    2.86999989
   13.94083309  155.88299561    4.90999985    2.86999989
   13.94416714  157.43400574    4.90999985    2.86999989
   13.94750023  162.45899963    4.90999985    2.86999989
   13.95361137  162.45899963    4.90999985    2.86999989
   13.95777798  160.04200745    4.90999985    2.86999989
   13.96083355  154.25399780    4.90999985    2.86999989
   13.96222210  152.14599609    4.90999985    2.86999989
   13.96444416  153.94000244    4.90999985    2.86999989
   13.96777725  157.92999268    4.90999985    2.86999989
   13.97111034  153.91700745    4.90999985    2.86999989
   13.97416592  162.50700378    4.90999985    2.86999989
   13.97749996  160.21499634    4.90999985    2.86999989
   13.98083305  165.23100281    4.90999985    2.86999989
   13.98388958  152.51199341    4.90999985    2.86999989
   13.98722267  163.14300537    4.90999985    2.86999989
   13.99055576  163.72500610    4.90999985    2.86999989
   13.99638939  163.72500610    4.90999985    2.86999989
   14.00055599  164.10200500    4.90999985    2.86999989
   14.00361156  153.93299866    4.90999985    2.86999989
   14.00694466  174.46299744    4.90999985    2.86999989
   14.01027775  169.11799622    4.90999985    2.86999989
   14.01333332  158.79600525    4.90999985    2.86999989
   14.01666641  151.29299927    4.90999985    2.86999989
   14.01972198  165.33200073    4.90999985    2.86999989
   14.02305508  166.10000610    4.90999985    2.86999989
   14.02638817  157.60400391    4.90999985    2.86999989
   14.02888870  150.49200439    4.90999985    2.86999989
   14.02972221  163.73899841    4.90999985    2.86999989
   14.03305531  160.53500366    4.90999985    2.86999989
   14.03916740  160.53500366    4.90999985    2.86999989
   14.04333401  156.81900024    4.90999985    2.86999989
   14.04638958  162.04600525    4.90999985    2.86999989
   14.04972267  169.49800110    4.90999985    2.86999989
   14.05305576  154.88299561    4.90999985    2.86999989
   14.05611134  159.08599854    4.90999985    2.86999989
   14.05944443  165.39300537    4.90999985    2.86999989
   14.06222248  161.12699890    4.90999985    2.86999989
   14.06305599  151.95899963    4.90999985    2.86999989
   14.06638908  152.51899719    4.90999985    2.86999989
   14.06972218  164.16600037    4.90999985    2.86999989
   14.07277775  167.96099854    4.90999985    2.86999989
   14.07611084  155.91499329    4.90999985    2.86999989
   14.08194447  155.91499329    4.90999985    2.86999989
   14.08611107  171.18400574    4.90999985    2.86999989
   14.08944416  174.10299683    4.90999985    2.86999989
   14.09249973  164.99400330    4.90999985    2.89000010
   14.09555531  159.00799561    4.90999985    2.86999989
   14.09611034  176.35699463    4.90999985    2.89000010
   14.09944439  167.59100342    4.90999985    2.86999989
   14.10277843  170.77600098    4.90999985    2.89000010
   14.10583401  153.13699341    4.90999985    2.89000010
   14.10916710  166.93400574    4.90999985    2.86999989
   14.11222267  165.26300049    4.90999985    2.89000010
   14.11555576  161.59899902    4.90999985    2.89000010
   14.11888885  155.48599243    4.90999985    2.89000010
   14.12500000  155.48599243    4.90999985    2.86999989
   14.12888908  161.18299866    4.90999985    2.89000010
   14.13222218  176.56100464    4.90999985    2.89000010
   14.13555527  171.76800537    4.90999985    2.86999989
   14.13861084  160.93099976    4.90999985    2.86999989
   14.14194393  158.42799377    4.90999985    2.89000010
   14.14527798  159.48100281    4.90999985    2.86999989
   14.14833355  164.43600464    4.90999985    2.86999989
   14.15166664  161.65400696    4.90999985    2.89000010
   14.15472221  172.49600220    4.90999985    2.89000010
   14.15805531  164.62100220    4.90999985    2.89000010
   14.16138840  169.38499451    4.90999985    2.89000010
   14.16222191  165.74400330    4.90999985    2.89000010
   14.16777802  165.74400330    4.90999985    2.89000010
   14.17194462  166.31500244    4.90999985    2.89000010
   14.17500019  154.00900269    4.90999985    2.86999989
   14.17833328  151.74400330    4.90999985    2.89000010
   14.18166733  166.82400513    4.90999985    2.89000010
   14.18472195  161.42100525    4.90999985    2.89000010
   14.18805599  151.76899719    4.90999985    2.89000010
   14.19111156  167.38600159    4.90999985    2.89000010
   14.19444466  162.02799988    4.90999985    2.89000010
   14.19555569  167.97000122    4.90999985    2.89000010
   14.19777775  158.80499268    4.90999985    2.89000010
   14.20111084  164.38800049    4.90999985    2.89000010
   14.20444393  166.30200195    4.90999985    2.91000009
   14.21055508  166.30200195    4.90999985    2.89000010
   14.21472168  164.04899597    4.90999985    2.89000010
   14.21805477  155.64199829    4.90999985    2.89000010
   14.22111034  159.82699585    4.90999985    2.89000010
   14.22444439  152.51499939    4.90999985    2.91000009
   14.22749996  155.57299805    4.90999985    2.86999989
   14.22888851  159.27699280    4.90999985    2.89000010
   14.23111057  164.11999512    4.90999985    2.89000010
   14.23444462  166.51699829    4.90999985    2.89000010
   14.23777771  169.77499390    4.90999985    2.86999989
   14.24083328  159.60099792    4.90999985    2.89000010
   14.24416733  155.72500610    4.90999985    2.89000010
   14.24750042  167.71600342    4.90999985    2.89000010
   14.25333309  167.71600342    4.90999985    2.89000010
   14.25749969  160.09300232    4.90999985    2.89000010
   14.26083374  164.50100708    4.90999985    2.89000010
   14.26222229  161.30599976    4.90999985    2.89000010
   14.26416683  162.69700623    4.90999985    2.89000010
   14.26749992  163.02400208    4.90999985    2.89000010
   14.27083302  166.58599854    4.90999985    2.89000010
   14.27388859  154.99899292    4.90999985    2.89000010
   14.27722168  174.68600464    4.90999985    2.89000010
   14.28055573  156.51300049    4.90999985    2.89000010
   14.28361130  167.39300537    4.90999985    2.89000010
   14.28694534  161.84700012    4.90999985    2.89000010
   14.29000092  161.86799622    4.90999985    2.91000009
   14.29611111  161.86799622    4.90999985    2.89000010
   14.30027771  162.94299316    4.90999985    2.89000010
   14.30361176  159.82099915    4.90999985    2.89000010
   14.30694485  154.91799927    4.90999985    2.89000010
   14.31000042  152.99299622    4.90999985    2.91000009
   14.31333351  155.21699524    4.90999985    2.91000009
   14.31666660  162.65499878    4.90999985    2.91000009
   14.31972218  161.75399780    4.90999985    2.91000009
   14.32305527  157.35000610    4.90999985    2.91000009
   14.32638836  165.83299255    4.90999985    2.91000009
   14.32888889  156.98599243    4.90999985    2.91000009
   14.32972240  156.33599854    4.90999985    2.89000010
   14.33305550  157.10699463    4.90999985    2.91000009
   14.33916664  157.10699463    4.90999985    2.89000010
   14.34333324  153.01699829    4.90999985    2.89000010
   14.34638882  157.27699280    4.90999985    2.89000010
   14.34972191  161.35200500    4.90999985    2.89000010
   14.35277843  158.42500305    4.90999985    2.91000009
   14.35611153  156.70199585    4.90999985    2.91000009
   14.35944462  162.70500183    4.90999985    2.91000009
   14.36222267  154.93299866    4.90999985    2.89000010
   14.36277771  164.21000671    4.90999985    2.89000010
   14.36611176  159.86500549    4.90999985    2.91000009
   14.36944485  158.27299500    4.90999985    2.89000010
   14.37250042  158.44000244    4.90999985    2.89000010
   14.37583351  164.50300598    4.90999985    2.89000010
   14.38194466  164.50300598    4.90999985    2.89000010
   14.38611126  164.22799683    4.90999985    2.89000010
   14.38916683  161.40199280    4.90999985    2.89000010
   14.39249992  152.35200500    4.90999985    2.91000009
   14.39555550  159.59599304    4.90999985    2.91000009
   14.39611053  158.08500671    4.90999985    2.89000010
   14.39944458  162.36300659    4.90999985    2.89000010
   14.40277767  158.01800537    4.90999985    2.89000010
   14.40583324  161.13699341    4.90999985    2.89000010
   14.40916634  163.88900757    4.90999985    2.89000010
   14.41249943  157.54200745    4.90999985    2.91000009
   14.41555500  160.57499695    4.90999985    2.91000009
   14.41888905  165.51400757    4.90999985    2.91000009
   14.42472267  165.51400757    4.90999985    2.89000010
   14.42888927  158.68400574    4.90999985    2.91000009
   14.43222237  159.50399780    4.90999985    2.89000010
   14.43527794  164.85899353    4.90999985    2.91000009
   14.43861103  163.19200134    4.90999985    2.91000009
   14.44194412  163.14100647    4.90999985    2.91000009
   14.44499969  165.02099609    4.90999985    2.91000009
   14.44833374  168.35400391    4.90999985    2.91000009
   14.45138836  169.28399658    4.90999985    2.91000009
   14.45472240  162.31700134    4.90999985    2.91000009
   14.45805550  162.82600403    4.90999985    2.91000009
   14.46111107  163.02000427    4.90999985    2.91000009
   14.46222210  169.78599548    4.90999985    2.91000009
   14.46749973  169.78599548    4.90999985    2.91000009
   14.47166634  164.27299500    4.90999985    2.91000009
   14.47499943  168.29100037    4.90999985    2.91000009
   14.47833252  152.19400024    4.90999985    2.91000009
   14.48138809  177.06300354    4.90999985    2.89000010
   14.48472214  162.52799988    4.90999985    2.91000009
   14.48805618  169.37500000    4.90999985    2.91000009
   14.49111176  157.60000610    4.90999985    2.91000009
   14.49444485  163.97099304    4.90999985    2.91000009
   14.49555588  165.72799683    4.90999985    2.93000007
   14.49805546  159.79400635    4.90999985    2.91000009
   14.50111103  179.99800110    4.90999985    2.89000010
   14.50444412  168.65899658    4.90999985    2.93000007
   14.51055527  168.65899658    4.90999985    2.91000009
   14.51472187  181.11500549    4.90999985    2.91000009
   14.51777744  178.90299988    4.90999985    2.91000009
   14.52111053  177.17300415    4.90999985    2.91000009
   14.52416611  171.92700195    4.90999985    2.93000007
   14.52750015  175.57899475    4.90999985    2.91000009
   14.52888870  182.59500122    4.90999985    2.91000009
   14.53111076  170.19000244    4.90999985    2.91000009
   14.53416729  175.50700378    4.90999985    2.91000009
   14.53750038  177.89199829    4.90999985    2.91000009
   14.54055595  164.81900024    4.90999985    2.91000009
   14.54388905  166.56799316    4.90999985    2.91000009
   14.54722309  169.97700500    4.90999985    2.91000009
   14.55333328  169.97700500    4.90999985    2.91000009
   14.55749989  162.96299744    4.90999985    2.91000009
   14.56055546  161.52699280    4.90999985    2.91000009
   14.56222248  170.19000244    4.90999985    2.91000009
   14.56444454  153.14300537    4.90999985    2.93000007
   14.56750011  162.67799377    4.90999985    2.91000009
   14.57083321  157.82899475    4.90999985    2.91000009
   14.57416630  166.30700684    4.90999985    2.91000009
   14.57722187  161.18800354    4.90999985    2.91000009
   14.58055592  165.77999878    4.90999985    2.91000009
   14.58388901  168.52799988    4.90999985    2.93000007
   14.58694458  170.09700012    4.90999985    2.91000009
   14.59027767  166.45799255    4.90999985    2.93000007
   14.59611034  166.45799255    4.90999985    2.93000007
   14.60027790  173.71299744    4.90999985    2.93000007
   14.60361195  170.06799316    4.90999985    2.91000009
   14.60666752  172.91900635    4.90999985    2.91000009
   14.61000061  180.15299988    4.90999985    2.91000009
   14.72277737   -1.00000000   -1.00000000   -1.00000000
   14.86500072   -1.00000000   -1.00000000   -1.00000000
   14.99194431   -1.00000000   -1.00000000   -1.00000000
   15.05694485  105.18000031    4.90999985    2.94000006
   15.06000042  188.36900330    4.90999985    2.94000006
   15.06333351  165.86700439    4.90999985    2.93000007
   15.06666660  156.66900635    4.90999985    2.94000006
   15.06972218  174.24299622    4.90999985    2.94000006
   15.07305527  162.01199341    4.90999985    2.94000006
   15.07722187  162.01199341    4.90999985    2.94000006
   15.08138847  183.08599854    4.90999985    2.94000006
   15.08444405  161.66000366    4.90999985    2.93000007
   15.08777714  154.00199890    4.90999985    2.93000007
   15.09027767  163.18699646    4.90999985    2.94000006
   15.09111118  154.71000671    4.90999985    2.93000007
   15.09444427  167.72700500    4.90999985    2.94000006
   15.09777737  159.68699646    4.90999985    2.93000007
   15.10083389  180.32600403    4.90999985    2.93000007
   15.10416698  161.96600342    4.90999985    2.94000006
   15.10750008  168.11399841    4.90999985    2.94000006
   15.11055565  157.14599609    4.90999985    2.94000006
   15.11388969  166.39100647    4.90999985    2.94000006
   15.11999989  166.39100647    4.90999985    2.94000006
   15.12416649  164.61399841    4.90999985    2.93000007
   15.12750053  168.47900391    4.90999985    2.94000006
   15.13055611  163.09700012    4.90999985    2.94000006
   15.13388920  169.35800171    4.90999985    2.94000006
   15.13694477  161.26499939    4.90999985    2.94000006
   15.14027786  161.65899658    4.90999985    2.94000006
   15.14361095  158.11700439    4.90999985    2.94000006
   15.14666653  161.92399597    4.90999985    2.94000006
   15.14999962  160.34500122    4.90999985    2.94000006
   15.15333271  163.71499634    4.90999985    2.94000006
   15.15638828  161.27299500    4.90999985    2.94000006
   15.15694427  153.76899719    4.90999985    2.94000006
   15.16277695  153.76899719    4.90999985    2.94000006
   15.16694450  156.76400757    4.90999985    2.94000006
   15.17027855  159.24299622    4.90999985    2.94000006
   15.17333412  155.58999634    4.90999985    2.94000006
   15.17666721  153.68400574    4.90999985    2.94000006
   15.18000031  161.27900696    4.90999985    2.94000006
   15.18305588  157.93400574    4.90999985    2.94000006
   15.18638897  158.92900085    4.90999985    2.94000006
   15.18972206  158.56100464    4.90999985    2.94000006
   15.19027805  166.23800659    4.90999985    2.94000006
   15.19333363  159.41099548    4.90999985    2.94000006
   15.19638920  163.41200256    4.90999985    2.94000006
   15.19972229  158.45799255    4.90999985    2.94000006
   15.20583344  158.45799255    4.90999985    2.94000006
   15.20972157  174.13600159    4.90999985    2.94000006
   15.21305561  165.57899475    4.90999985    2.94000006
   15.21638870  163.43299866    4.90999985    2.94000006
   15.21944427  170.49099731    4.90999985    2.94000006
   15.22277737  171.97200012    4.90999985    2.94000006
   15.22361088  178.55200195    4.90999985    2.93000007
   15.22638798  166.97500610    4.90999985    2.94000006
   15.22944355  164.75199890    4.90999985    2.94000006
   15.23277760  154.82000732    4.90999985    2.94000006
   15.23611164  175.04200745    4.90999985    2.94000006
   15.23916721  174.87699890    4.90999985    2.93000007
   15.24250031  161.13999939    4.90999985    2.94000006
   15.24861145  161.13999939    4.90999985    2.94000006
   15.25277805  166.00900269    4.90999985    2.94000006
   15.25583363  159.56500244    4.90999985    2.94000006
   15.25694466  175.16499329    4.90999985    2.94000006
   15.25944424  170.47300720    4.90999985    2.94000006
   15.26249981  177.16299438    4.90999985    2.93000007
   15.26583290  167.30000305    4.90999985    2.94000006
   15.26916599  169.42399597    4.90999985    2.93000007
   15.27222157  167.72599792    4.90999985    2.94000006
   15.27555561  186.89199829    4.90999985    2.94000006
   15.27888870  178.67300415    4.90999985    2.94000006
   15.28194427  180.20599365    4.90999985    2.94000006
   15.28527832  172.24499512    4.90999985    2.94000006
   15.29138947  172.24499512    4.90999985    2.94000006
   15.29555607  172.78399658    4.90999985    2.94000006
   15.29888916  173.33200073    4.90999985    2.94000006
   15.30194473  171.48199463    4.90999985    2.94000006
   15.30527782  180.85099792    4.90999985    2.94000006
   15.30833340  166.92799377    4.90999985    2.94000006
   15.31166649  162.75900269    4.90999985    2.94000006
   15.31500053  165.27799988    4.90999985    2.94000006
   15.31805515  158.55900574    4.90999985    2.94000006
   15.32138920  152.53399658    4.90999985    2.94000006
   15.32361126  178.77299500    4.90999985    2.94000006
   15.32499981  175.79600525    4.90999985    2.93000007
   15.32805538  162.57400513    4.90999985    2.93000007
   15.33416653  162.57400513    4.90999985    2.94000006
   15.33833313  159.67999268    4.90999985    2.94000006
   15.34166622  166.86300659    4.90999985    2.94000006
   15.34499931  166.59599304    4.90999985    2.94000006
   15.34805489  160.85800171    4.90999985    2.94000006
   15.35138893  157.99000549    4.90999985    2.94000006
   15.35444450  168.51499939    4.90999985    2.94000006
   15.35694504  166.82400513    4.90999985    2.94000006
   15.35833359  166.07600403    4.90999985    2.96000004
   15.36138916  181.63299561    4.90999985    2.94000006
   15.36472225  168.22000122    4.90999985    2.96000004
   15.36805534  167.44500732    4.90999985    2.94000006
   15.37111092  165.97399902    4.90999985    2.94000006
   15.37722206  165.97399902    4.90999985    2.94000006
   15.38138866  163.06300354    4.90999985    2.94000006
   15.38444424  165.60699463    4.90999985    2.94000006
   15.38777733  152.98699951    4.90999985    2.94000006
   15.39027786  145.11599731    4.90999985    2.94000006
   15.39138889  181.34700012    4.90999985    2.94000006
   15.39444447  170.36599731    4.90999985    2.94000006
   15.39777756  171.27000427    4.90999985    2.94000006
   15.40111065  155.15699768    4.90999985    2.94000006
   15.40416622  164.96200562    4.90999985    2.94000006
   15.40749931  177.62300110    4.90999985    2.94000006
   15.41083336  171.07800293    4.90999985    2.94000006
   15.41388893  170.40699768    4.90999985    2.94000006
   15.42000008  170.40699768    4.90999985    2.94000006
   15.42416668  145.43699646    1.60000002    2.80999994
   15.42722225  156.31700134    1.60000002    2.78999996
   15.43055630  152.50100708    1.61000001    2.78999996
   15.43388939  159.01699829    1.63000000    2.78999996
   15.43694496  153.06900024    1.63000000    2.78999996
   15.44027805  152.32899475    1.66999996    2.78999996
   15.44361115  152.49499512    1.66999996    2.78999996
   15.44694424  160.14900208    1.66999996    2.80999994
   15.44999981  155.40699768    1.64999998    2.80999994
   15.45333290  159.97200012    1.64999998    2.80999994
   15.45638847  151.71600342    1.64999998    2.80999994
   15.45694447  164.07899475    1.64999998    2.80999994
   15.46277714  164.07899475    1.63000000    2.80999994
   15.46694374  152.68499756    1.63000000    2.82999992
   15.47027779  162.40800476    1.63000000    2.82999992
   15.47333336  157.04299927    1.64999998    2.80999994
   15.47666645  166.19000244    1.64999998    2.82999992
   15.47999954  158.22000122    1.64999998    2.80999994
   15.48305511  173.36500549    1.64999998    2.82999992
   15.48638916  162.92300415    1.64999998    2.82999992
   15.48944473  156.29400635    1.64999998    2.82999992
   15.49027824  161.93299866    1.64999998    2.82999992
   15.49305534  169.26100159    1.64999998    2.80999994
   15.49638939  158.21200562    1.61000001    2.80999994
   15.49944496  152.91200256    1.61000001    2.80999994
   15.50555515  152.91200256    1.58000004    2.82999992
   15.50972176  165.61199951    1.55999994    2.82999992
   15.51305580  163.91000366    1.53999996    2.80999994
   15.51611137  156.37399292    1.51999998    2.82999992
   15.51944447  156.29100037    1.51999998    2.82999992
   15.52277756  161.52400208    1.53999996    2.82999992
   15.52361107  143.06300354    1.53999996    2.82999992
   15.52638817  162.88999939    1.50000000    2.82999992
   15.52972221  150.36199951    1.50000000    2.80999994
   15.53277779  155.25500488    1.48000002    2.82999992
   15.53611183  150.89599609    1.48000002    2.80999994
   15.53916740  146.22099304    1.50000000    2.82999992
   15.54250050  150.71400452    1.51999998    2.82999992
   15.54861164  150.71400452    1.55999994    2.80999994
   15.55277824  152.87100220    1.55999994    2.82999992
   15.55583382  152.00399780    1.55999994    2.82999992
   15.55694485  154.68600464    1.55999994    2.82999992
   15.55944443  139.86000061    1.58000004    2.82999992
   15.56277752  148.83999634    1.61000001    2.82999992
   15.56583309  147.43699646    1.60000002    2.82999992
   15.56916618  148.19299316    1.60000002    2.82999992
   15.57250023  142.80200195    1.60000002    2.82999992
   15.57555580  156.08200073    1.61000001    2.82999992
   15.57888889  148.75399780    1.63000000    2.80999994
   15.58222198  144.23300171    1.64999998    2.82999992
   15.58527756  152.13900757    1.63000000    2.82999992
   15.59138870  152.13900757    1.60000002    2.82999992
   15.59555531  145.89799500    1.60000002    2.82999992
   15.59888840  141.67300415    1.69000006    2.80999994
   15.60194492  141.56300354    1.73000002    2.80999994
   15.60527802  142.96099854    1.73000002    2.80999994
   15.60861111  142.94500732    1.73000002    2.80999994
   15.61166668  146.60099792    1.85000002    2.82999992
   15.61500072  149.08500671    1.83000004    2.80999994
   15.61805534  140.94799805    1.80999994    2.80999994
   15.62138939  141.21000671    1.78999996    2.82999992
   15.62388897  147.41000366    1.78999996    2.82999992
   15.62500000  148.50599670    1.75000000    2.80999994
   15.62833309  148.14700317    1.75000000    2.82999992
   15.63416672  148.14700317    1.71000004    2.82999992
   15.63833332  155.48599243    1.69000006    2.82999992
   15.64166641  155.98500061    1.69000006    2.82999992
   15.64472198  161.60600281    1.66999996    2.82999992
   15.64805508  159.85899353    1.66999996    2.80999994
   15.65111065  160.72399902    1.64999998    2.82999992
   15.65444374  157.66900635    1.63000000    2.80999994
   15.65694427  145.05000305    1.61000001    2.80999994
   15.65805531  151.50599670    1.60000002    2.82999992
   15.66138840  155.37699890    1.58000004    2.82999992
   15.66444397  149.25100708    1.58000004    2.82999992
   15.66777802  146.34399414    1.55999994    2.82999992
   15.67083359  156.31700134    1.51999998    2.82999992
   15.67694473  156.31700134    1.50000000    2.82999992
   15.68111134  147.90199280    1.50000000    2.82999992
   15.68444443  149.10200500    1.48000002    2.80999994
   15.68777752  158.72300720    1.46000004    2.82999992
   15.69027805  150.93800354    1.55999994    2.82999992
   15.69138908  152.34899902    1.55999994    2.82999992
   15.69472218  152.23199463    1.58000004    2.82999992
   15.69777775  138.76600647    1.55999994    2.82999992
   15.70111084  148.67900085    1.55999994    2.82999992
   15.70416641  151.57000732    1.53999996    2.82999992
   15.70749950  155.09800720    1.53999996    2.82999992
   15.71083355  160.81799316    1.58000004    2.82999992
   15.71388912  150.91900635    1.53999996    2.82999992
   15.71999931  150.91900635    1.51999998    2.82999992
   15.72416592  149.03599548    1.55999994    2.82999992
   15.72722149  143.83700562    1.63000000    2.82999992
   15.73055553  150.68200684    1.63000000    2.82999992
   15.73361111  149.52499390    1.63000000    2.82999992
   15.73694515  149.15299988    1.53999996    2.82999992
   15.74027824  146.28300476    1.53999996    2.82999992
   15.74333382  152.24000549    1.53999996    2.82999992
   15.74666691  156.33500671    1.53999996    2.82999992
   15.75000000  145.18800354    1.63000000    2.80999994
   15.75305557  142.66099548    1.66999996    2.82999992
   15.75638866  148.17700195    1.66999996    2.82999992
   15.75694466  149.86199951    1.66999996    2.82999992
   15.76277733  149.86199951    1.63000000    2.82999992
   15.76694393  149.61199951    1.63000000    2.82999992
   15.76999950  149.36099243    1.63000000    2.82999992
   15.77333355  145.28399658    1.61000001    2.82999992
   15.77666664  145.79400635    1.58000004    2.82999992
   15.77972221  148.55599976    1.53999996    2.82999992
   15.78305531  151.17399597    1.53999996    2.82999992
   15.78638935  147.07699585    1.53999996    2.82999992
   15.78944492  146.66000366    1.53999996    2.82999992
   15.79055595  142.73699951    1.53999996    2.82999992
   15.79333401  148.00999451    1.63000000    2.82999992
   15.79638958  139.09500122    1.63000000    2.82999992
   15.79972267  148.25599670    1.66999996    2.82999992
   15.80555534  148.25599670    1.64999998    2.82999992
   15.80972195  136.38400269    1.64999998    2.82999992
   15.81305599  146.37399292    1.61000001    2.82999992
   15.81611156  136.79100037    1.58000004    2.82999992
   15.81944466  143.03199768    1.58000004    2.82999992
   15.82277775  143.82099915    1.60000002    2.82999992
   15.82361126  148.36599731    1.61000001    2.82999992
   15.82638836  148.38400269    1.61000001    2.82999992
   15.82972240  150.46800232    1.64999998    2.82999992
   15.83277798  147.07099915    1.64999998    2.82999992
   15.83611107  155.09399414    1.64999998    2.82999992
   15.83944416  153.43099976    1.64999998    2.82999992
   15.84249973  147.28700256    1.63000000    2.82999992
   15.84833336  147.28700256    1.55999994    2.82999992
   15.85249996  157.52200317    1.55999994    2.82999992
   15.85583401  157.77200317    1.55999994    2.82999992
   15.85694504  155.13400269    1.55999994    2.82999992
   15.85944462  150.91799927    1.61000001    2.82999992
   15.86277771  157.02900696    1.61000001    2.82999992
   15.86583328  149.68699646    1.61000001    2.82999992
   15.86916637  147.57400513    1.63000000    2.82999992
   15.87250042  152.85299683    1.64999998    2.82999992
   15.87555599  149.64100647    1.64999998    2.82999992
   15.87888908  152.06300354    1.63000000    2.80999994
   15.88194466  145.00399780    1.64999998    2.82999992
   15.88527775  143.64900208    1.64999998    2.82999992
   15.89138889  143.64900208    1.66999996    2.80999994
   15.89555550  137.09100342    1.71000004    2.82999992
   15.89861107  139.02099609    1.71000004    2.82999992
   15.90194416  132.82899475    1.66999996    2.82999992
   15.90499973  135.93499756    1.66999996    2.82999992
   15.90833282  141.80299377    1.66999996    2.82999992
   15.91166592  137.93600464    1.63000000    2.82999992
   15.91472149  134.97399902    1.61000001    2.82999992
   15.91805553  134.86300659    1.61000001    2.82999992
   15.92138958  136.11700439    1.61000001    2.82999992
   15.92361164  137.55799866    1.60000002    2.82999992
   15.92472267  136.66299438    1.60000002    2.82999992
   15.92805576  135.53900146    1.63000000    2.82999992
   15.93416691  135.53900146    1.69000006    2.80999994
   15.93833351  149.36799622    1.76999998    2.82999992
   15.94138908  146.97799683    1.98000002    2.80999994
   15.94472218  144.05499268    2.07999992    2.82999992
   15.94805527  156.22999573    2.11999989    2.80999994
   15.95111084  142.92700195    2.11999989    2.80999994
   15.95444393  147.70399475    2.01999998    2.82999992
   15.95722198  151.50300598    1.98000002    2.82999992
   15.95805550  150.16499329    1.98000002    2.82999992
   15.96138859  146.68800354    1.89999998    2.82999992
   15.96444416  143.37800598    1.85000002    2.82999992
   15.96777725  142.08299255    1.76999998    2.82999992
   15.97111034  139.61000061    1.76999998    2.82999992
   15.97694397  139.61000061    1.75000000    2.82999992
   15.98111057  147.38600159    1.66999996    2.82999992
   15.98444462  146.06300354    1.64999998    2.82999992
   15.98750019  141.07099915    1.63000000    2.82999992
   15.99027824  142.48500061    1.63000000    2.82999992
   15.99111176  141.45100403    1.63000000    2.82999992
   15.99444485  142.01600647    1.58000004    2.82999992
   15.99750042  134.46099854    1.60000002    2.82999992
   16.00083351  132.98699951    1.61000001    2.82999992
   16.00416756  140.50000000    1.61000001    2.82999992
   16.00722313  135.24200439    1.60000002    2.82999992
   16.01055527  135.09899902    1.60000002    2.84999990
   16.01361084  138.95500183    1.60000002    2.82999992
   16.01972198  138.95500183    1.63000000    2.82999992
   16.02388954  142.92399597    1.64999998    2.82999992
   16.02722168  136.00500488    1.66999996    2.82999992
   16.03055573  140.80599976    1.66999996    2.82999992
   16.03361130  137.69700623    1.66999996    2.82999992
   16.03694344  134.38600159    1.66999996    2.82999992
   16.03999901  135.84899902    1.66999996    2.82999992
   16.04333305  142.46800232    1.66999996    2.82999992
   16.04666710  140.88000488    1.66999996    2.82999992
   16.04972076  150.34700012    1.66999996    2.82999992
   16.05305481  139.66600037    1.69000006    2.82999992
   16.05638885  141.61599731    1.71000004    2.82999992
   16.05694389  140.57000732    1.71000004    2.82999992
   16.07777786  140.57000732    1.91999996    2.82999992
   16.08194542  140.39900208    1.86000001    2.82999992
   16.08527756  140.06100464    1.83000004    2.82999992
   16.08833313  139.00399780    1.78999996    2.82999992
   16.09055710  145.17300415    1.78999996    2.82999992
   16.09194565  134.96099854    1.83000004    2.80999994
   16.09527779  141.54600525    1.85000002    2.82999992
   16.09833336  138.42100525    2.07999992    2.80999994
   16.10166740  134.72599792    2.05999994    2.82999992
   16.10499954  137.11599731    1.83000004    2.82999992
   16.10805511  140.32000732    1.75000000    2.82999992
   16.11138916  142.19500732    1.75000000    2.82999992
   16.11472321  135.88499451    1.71000004    2.82999992
   16.12055588  135.88499451    1.69000006    2.82999992
   16.12472153  136.72099304    1.66999996    2.82999992
   16.12805557  142.88699341    1.64999998    2.82999992
   16.13111115  139.54299927    1.60000002    2.82999992
   16.13444519  141.43600464    1.60000002    2.82999992
   16.13750076  134.25999451    1.58000004    2.82999992
   16.14083290  141.64799500    1.53999996    2.82999992
   16.14416695  142.43800354    1.53999996    2.84999990
   16.14722252  139.61300659    1.53999996    2.82999992
   16.15055466  132.40499878    1.53999996    2.82999992
   16.15388870  150.54899597    1.55999994    2.82999992
   16.15694427  147.66999817    1.58000004    2.82999992
   16.15749931  139.82400513    1.58000004    2.82999992
   16.16333389  139.82400513    1.58000004    2.82999992
   16.16749954  151.76699829    1.55999994    2.82999992
   16.17083359  150.62699890    1.58000004    2.84999990
   16.17388916  149.99400330    1.61000001    2.82999992
   16.17722130  154.68499756    1.61000001    2.82999992
   16.18055534  153.21499634    1.61000001    2.84999990
   16.18361092  142.56500244    1.61000001    2.82999992
   16.18694305  146.56500244    1.61000001    2.82999992
   16.19027710  147.86799622    1.58000004    2.82999992
   16.19083214  147.06399536    1.58000004    2.82999992
   16.19388771  147.89700317    1.55999994    2.82999992
   16.19694328  140.97200012    1.60000002    2.82999992
   16.20027924  142.02299500    1.60000002    2.82999992
   16.20611191  142.02299500    1.61000001    2.82999992
   16.21027946  140.61999512    1.60000002    2.82999992
   16.21361160  140.94000244    1.60000002    2.82999992
   16.21694565  133.37399292    1.64999998    2.82999992
   16.22000122  137.87800598    1.71000004    2.82999992
   16.22333336  140.12899780    1.71000004    2.82999992
   16.22416687  148.47300720    1.71000004    2.82999992
   16.22694588  146.80200195    1.73000002    2.82999992
   16.23000145  141.32299805    1.73000002    2.82999992
   16.23333359  138.06799316    1.73000002    2.82999992
   16.23666763  142.26199341    1.69000006    2.84999990
   16.23972321  141.53399658    1.66999996    2.82999992
   16.24305534  149.51600647    1.66999996    2.82999992
   16.24916649  149.51600647    1.63000000    2.82999992
   16.25333405  140.13299561    1.60000002    2.82999992
   16.25638962  130.35400391    1.60000002    2.82999992
   16.25749969  135.02200317    1.53999996    2.82999992
   16.26027870  145.93099976    1.53999996    2.82999992
   16.26333427  142.39900208    1.51999998    2.82999992
   16.26666641  145.37500000    1.53999996    2.82999992
   16.26972198  138.50999451    1.53999996    2.82999992
   16.27305603  135.69000244    1.58000004    2.82999992
   16.27638817  136.55799866    1.60000002    2.84999990
   16.27944374  135.83700562    1.64999998    2.82999992
   16.28277779  139.15199280    1.64999998    2.82999992
   16.28610992  135.68099976    1.64999998    2.82999992
   16.29194450  135.68099976    1.66999996    2.82999992
   16.29611015  135.19700623    1.66999996    2.82999992
   16.29944420  138.74600220    1.71000004    2.82999992
   16.30249977  139.61300659    1.71000004    2.82999992
   16.30583191  133.12100220    1.76999998    2.82999992
   16.30888748  136.38000488    1.80999994    2.82999992
   16.31222153  128.98100281    1.85000002    2.82999992
   16.31555557  133.95700073    1.86000001    2.82999992
   16.31861115  128.34599304    1.86000001    2.82999992
   16.32194519  133.41099548    1.86000001    2.82999992
   16.32416725  130.39100647    1.86000001    2.82999992
   16.32555580  131.64999390    1.86000001    2.82999992
   16.32861137  135.20500183    1.83000004    2.82999992
   16.33472252  135.20500183    1.78999996    2.82999992
   16.33889008  131.86999512    1.78999996    2.82999992
   16.34222221  131.78399658    1.75000000    2.82999992
   16.34555626  129.77299500    1.75000000    2.82999992
   16.34861183  134.69700623    1.75000000    2.82999992
   16.35194397  130.38299561    1.75000000    2.82999992
   16.35499954  135.63400269    1.75000000    2.82999992
   16.35750008  129.20899963    1.75000000    2.82999992
   16.35888863  127.24600220    1.75000000    2.82999992
   16.36194420  135.28300476    1.75000000    2.82999992
   16.36527824  134.32699585    1.71000004    2.82999992
   16.36833382  141.63699341    1.69000006    2.82999992
   16.37166595  138.72000122    1.69000006    2.82999992
   16.37750053  138.72000122    1.66999996    2.82999992
   16.38166618  130.46499634    1.63000000    2.84999990
   16.38500023  135.96600342    1.60000002    2.84999990
   16.38833237  140.13800049    1.60000002    2.84999990
   16.39083290  128.90100098    1.58000004    2.84999990
   16.39194489  139.53399658    1.58000004    2.84999990
   16.39500046  125.51399994    1.60000002    2.82999992
   16.39833260  131.82200623    1.55999994    2.82999992
   16.40138817  133.27299500    1.55999994    2.82999992
   16.40472221  132.63099670    1.55999994    2.82999992
   16.40805435  128.10099792    1.55999994    2.82999992
   16.41110992  134.49099731    1.55999994    2.84999990
   16.41444397  135.85099792    1.55999994    2.84999990
   16.42055511  135.85099792    1.71000004    2.82999992
   16.42472076  141.83799744    1.73000002    2.82999992
   16.42777634  141.47399902    1.73000002    2.82999992
   16.43111038  138.30499268    1.73000002    2.82999992
   16.43416595  128.63200378    1.73000002    2.82999992
   16.43750000  132.26600647    1.73000002    2.82999992
   16.44083214  129.87300110    1.73000002    2.82999992
   16.44388771  127.68800354    1.75000000    2.84999990
   16.44722176  132.71400452    1.75000000    2.82999992
   16.45055580  134.43099976    1.75000000    2.82999992
   16.45361137  140.84599304    1.76999998    2.82999992
   16.45694542  140.42100525    1.75000000    2.82999992
   16.45750046  142.66499329    1.75000000    2.82999992
   16.46333504  142.66499329    1.73000002    2.82999992
   16.46750069  136.91499329    1.73000002    2.82999992
   16.47055626  135.66000366    1.73000002    2.82999992
   16.47389030  130.37600708    1.73000002    2.82999992
   16.47722244  134.97399902    1.71000004    2.82999992
   16.48027802  131.66799927    1.71000004    2.82999992
   16.48361206  137.67999268    1.69000006    2.84999990
   16.48694420  133.70399475    1.66999996    2.82999992
   16.48999977  131.24600220    1.66999996    2.84999990
   16.49083328  132.13400269    1.66999996    2.84999990
   16.49361229  130.00999451    1.66999996    2.84999990
   16.49666786  129.77299500    1.66999996    2.84999990
   16.50000000  126.35700226    1.69000006    2.84999990
   16.50611115  126.35700226    1.71000004    2.82999992
   16.51055527  125.42199707    1.73000002    2.84999990
   16.51361084  123.30500031    1.73000002    2.84999990
   16.51694489  131.74099731    1.75000000    2.82999992
   16.52000046  123.94000244    1.78999996    2.82999992
   16.52333260  125.66500092    1.75000000    2.82999992
   16.52416611  132.08200073    1.75000000    2.82999992
   16.52694511  130.24699402    1.75000000    2.82999992
   16.53000069  131.10800171    1.80999994    2.82999992
   16.53333282  130.63600159    1.75000000    2.82999992
   16.53666687  125.12300110    1.76999998    2.82999992
   16.53972244  130.67199707    1.76999998    2.82999992
   16.54305458  128.06900024    1.76999998    2.82999992
   16.54888916  128.06900024    1.73000002    2.82999992
   16.55305481  132.67199707    1.69000006    2.82999992
   16.55638885  133.85099792    1.66999996    2.82999992
   16.55749893  124.72699738    1.66999996    2.82999992
   16.55999947  128.73500061    1.64999998    2.82999992
   16.56305504  123.42800140    1.66999996    2.82999992
   16.56638718  125.66500092    1.66999996    2.82999992
   16.56972313  125.23400116    1.69000006    2.84999990
   16.57277870  126.47399902    1.66999996    2.82999992
   16.57611275  130.73699951    1.71000004    2.82999992
   16.57944489  123.80300140    1.75000000    2.82999992
   16.58250046  134.65499878    1.75000000    2.82999992
   16.58583450  138.98500061    1.76999998    2.82999992
   16.59194565  138.98500061    1.78999996    2.82999992
   16.59611130  131.16400146    1.78999996    2.84999990
   16.59916687  128.79600525    1.76999998    2.82999992
   16.60250092  129.95300293    1.78999996    2.82999992
   16.60583305  135.53900146    1.76999998    2.82999992
   16.60888863  137.18899536    1.78999996    2.82999992
   16.61222267  140.97099304    1.78999996    2.82999992
   16.61527824  133.25100708    1.75000000    2.82999992
   16.61861038  135.78199768    1.75000000    2.82999992
   16.62194443  135.91999817    1.73000002    2.82999992
   16.62416649  132.55000305    1.69000006    2.84999990
   16.62555504  132.44799805    1.69000006    2.84999990
   16.62861061  131.71899414    1.64999998    2.82999992
   16.63472176  131.71899414    1.61000001    2.84999990
   16.63888931  135.84700012    1.61000001    2.84999990
   16.64222145  129.81500244    1.60000002    2.84999990
   16.64527702  134.20100403    1.60000002    2.84999990
   16.64861107  131.90699768    1.60000002    2.84999990
   16.65166664  129.85499573    1.58000004    2.84999990
   16.65499878  129.49600220    1.60000002    2.84999990
   16.65749931  135.29699707    1.55999994    2.84999990
   16.65861130  141.87100220    1.55999994    2.84999990
   16.66166687  133.04100037    1.53999996    2.84999990
   16.66499901  132.63699341    1.53999996    2.84999990
   16.66833305  132.22000122    1.53999996    2.84999990
   16.67138863  140.87399292    1.53999996    2.84999990
   16.67749977  140.87399292    1.60000002    2.84999990
   16.68166542  141.13000488    1.60000002    2.82999992
   16.68499947  134.96800232    1.61000001    2.82999992
   16.68805504  138.74800110    1.64999998    2.82999992
   16.69083214  135.63400269    1.69000006    2.84999990
   16.69194412  135.87399292    1.69000006    2.84999990
   16.69527626  127.19200134    1.73000002    2.82999992
   16.69833183  125.93199921    1.73000002    2.82999992
   16.70166779  139.16000366    1.73000002    2.82999992
   16.70472336  132.47200012    1.73000002    2.82999992
   16.70805550  134.71400452    1.73000002    2.82999992
   16.71138954  129.17799377    1.73000002    2.82999992
   16.71444511  129.78999329    1.73000002    2.84999990
   16.72055626  129.78999329    1.71000004    2.82999992
   16.72444534  135.85800171    1.71000004    2.84999990
   16.72777748  130.98599243    1.69000006    2.84999990
   16.73111153  124.63999939    1.66999996    2.84999990
   16.73416710  130.70899963    1.66999996    2.84999990
   16.73750114  134.66999817    1.63000000    2.82999992
   16.74055672  132.74800110    1.60000002    2.82999992
   16.74388885  127.49900055    1.61000001    2.84999990
   16.74722290  131.90100098    1.63000000    2.82999992
   16.75027847  138.06799316    1.64999998    2.84999990
   16.75361061  133.90899658    1.64999998    2.84999990
   16.75694466  114.85399628    1.64999998    2.84999990
   16.75749969  121.59300232    1.66999996    2.82999992
   16.76333427  121.59300232    1.71000004    2.84999990
   16.76749992  134.16000366    1.69000006    2.82999992
   16.77055550  136.54499817    1.71000004    2.82999992
   16.77388954  135.00100708    1.71000004    2.82999992
   16.77694511  139.42700195    1.71000004    2.84999990
   16.78027725  141.95100403    1.71000004    2.82999992
   16.78361130  133.54299927    1.71000004    2.82999992
   16.78666687  131.14599609    1.71000004    2.82999992
   16.78999901  133.73500061    1.73000002    2.84999990
   16.79083252  133.14199829    1.73000002    2.84999990
   16.79361153  130.21400452    1.73000002    2.84999990
   16.79666710  130.57000732    1.73000002    2.84999990
   16.79999924  130.51100159    1.73000002    2.82999992
   16.80611038  130.51100159    1.75000000    2.82999992
   16.81027794  129.41299438    1.76999998    2.82999992
   16.81333351  131.41600037    1.76999998    2.84999990
   16.81666756  131.99600220    1.75000000    2.84999990
   16.82000160  132.47799683    1.75000000    2.82999992
   16.82305717  130.53799438    1.75000000    2.82999992
   16.82416725  135.83200073    1.75000000    2.82999992
   16.82666779  127.22699738    1.75000000    2.82999992
   16.82972336  136.65800476    1.75000000    2.82999992
   16.83305550  132.27499390    1.75000000    2.82999992
   16.83638954  127.10099792    1.78999996    2.84999990
   16.83944511  128.54699707    1.76999998    2.84999990
   16.84277916  133.09700012    1.76999998    2.84999990
   16.84889030  133.09700012    1.73000002    2.82999992
   16.85305595  131.33900452    1.73000002    2.82999992
   16.85639000  141.88299561    1.71000004    2.84999990
   16.85750008  138.06799316    1.69000006    2.84999990
   16.86000061  124.80699921    1.69000006    2.84999990
   16.86305618  129.24000549    1.66999996    2.84999990
   16.86638832  143.99400330    1.64999998    2.82999992
   16.86972237  134.52000427    1.63000000    2.84999990
   16.87277794  133.91299438    1.63000000    2.84999990
   16.87611198  139.70500183    1.63000000    2.84999990
   16.87944412  135.98399353    1.63000000    2.84999990
   16.88249969  138.30200195    1.63000000    2.84999990
   16.88583374  143.12300110    1.61000001    2.82999992
   16.89166641  143.12300110    1.63000000    2.82999992
   16.89583397  141.56900024    1.63000000    2.84999990
   16.89916611  134.26600647    1.63000000    2.84999990
   16.90222168  137.67100525    1.64999998    2.84999990
   16.90555573  128.20300293    1.69000006    2.84999990
   16.90888786  128.79899597    1.71000004    2.84999990
   16.91194344  136.48300171    1.71000004    2.84999990
   16.91527748  140.12500000    1.75000000    2.82999992
   16.91860962  141.70899963    1.75000000    2.84999990
   16.92166519  133.29299927    1.73000002    2.84999990
   16.92416573  136.83299255    1.73000002    2.84999990
   16.92527771  133.84399414    1.73000002    2.82999992
   16.92833328  133.99299622    1.73000002    2.82999992
   16.93472099  133.99299622    1.73000002    2.82999992
   16.93888855  138.27000427    1.73000002    2.82999992
   16.94194412  132.64900208    1.71000004    2.82999992
   16.94527626  134.02400208    1.71000004    2.84999990
   16.94833183  133.37699890    1.66999996    2.84999990
   16.95166779  129.73800659    1.66999996    2.82999992
   16.95499992  127.80999756    1.66999996    2.82999992
   16.95750046  131.20399475    1.66999996    2.82999992
   16.95861244  129.47799683    1.66999996    2.84999990
   16.96166801  128.98599243    1.66999996    2.84999990
   16.96500015  128.15600586    1.64999998    2.82999992
   16.96833420  121.18000031    1.63000000    2.82999992
   16.97138977  132.09599304    1.61000001    2.84999990
   16.97777748  132.09599304    1.58000004    2.84999990
   16.98194504  131.39700317    1.58000004    2.84999990
   16.98527718  133.37699890    1.58000004    2.82999992
   16.98833275  130.85499573    1.58000004    2.82999992
   16.99083328  122.14499664    1.58000004    2.82999992
   16.99194527  122.72100067    1.58000004    2.82999992
   16.99500084  128.14599609    1.58000004    2.84999990
   16.99833298  131.91400146    1.55999994    2.84999990
   17.00166702  135.11099243    1.58000004    2.84999990
   17.00499916  131.77999878    1.61000001    2.84999990
   17.00805473  126.27999878    1.63000000    2.82999992
   17.01138878  129.83000183    1.63000000    2.82999992
   17.01444435  127.87300110    1.63000000    2.82999992
   17.02027702  127.87300110    1.66999996    2.84999990
   17.02444458  129.36900330    1.66999996    2.84999990
   17.02777672  132.70899963    1.69000006    2.84999990
   17.03083229  124.50099945    1.69000006    2.84999990
   17.03416634  134.40699768    1.69000006    2.84999990
   17.03750038  131.50100708    1.71000004    2.82999992
   17.04055595  134.62800598    1.71000004    2.82999992
   17.04388809  124.93900299    1.71000004    2.84999990
   17.04722214  128.58299255    1.66999996    2.82999992
   17.05027771  132.10000610    1.64999998    2.84999990
   17.05360985  133.43299866    1.64999998    2.84999990
   17.05666542  131.58000183    1.66999996    2.84999990
   17.05749893  135.84100342    1.66999996    2.82999992
   17.06305504  135.84100342    1.64999998    2.84999990
   17.06722260  127.88999939    1.63000000    2.84999990
   17.07055664  133.11199951    1.64999998    2.84999990
   17.07389069  130.87800598    1.63000000    2.84999990
   17.09138870  139.14900208    1.60000002    2.82999992
   17.09388924  136.38800049    1.58000004    2.84999990
   17.09694481  142.53500366    1.58000004    2.82999992
   17.10027885  143.14799500    1.53999996    2.84999990
   17.10611153  143.14799500    1.51999998    2.84999990
   17.11027908  137.56599426    1.50000000    2.84999990
   17.11361122  137.16700745    1.50000000    2.84999990
   17.11666679  135.69000244    1.50000000    2.84999990
   17.12000084  141.61000061    1.48000002    2.82999992
   17.12333298  135.05099487    1.50000000    2.84999990
   17.12472153  140.20100403    1.50000000    2.84999990
   17.12666702  131.87100220    1.51999998    2.84999990
   17.13000107  137.47200012    1.51999998    2.84999990
   17.13305473  131.17399597    1.55999994    2.84999990
   17.13638878  132.12500000    1.58000004    2.84999990
   17.13972282  131.99499512    1.76999998    2.84999990
   17.14277840  138.29800415    1.85000002    2.84999990
   17.14888954  138.29800415    1.73000002    2.84999990
   17.15305519  127.23799896    1.75000000    2.84999990
   17.15638924  134.14100647    1.75000000    2.84999990
   17.15805435  131.25000000    1.80999994    2.84999990
   17.15999985  131.67900085    1.80999994    2.84999990
   17.16333389  128.77600098    1.73000002    2.84999990
   17.16638756  135.68200684    1.73000002    2.84999990
   17.16972160  133.96800232    1.75000000    2.84999990
   17.17305565  137.26600647    1.80999994    2.84999990
   17.17611122  135.61700439    1.80999994    2.84999990
   17.17944336  136.27499390    1.89999998    2.82999992
   17.18277740  138.28799438    2.28999996    2.82999992
   17.18583298  140.11300659    2.23000002    2.82999992
   17.19194412  140.11300659    2.01999998    2.82999992
   17.19610977  143.30499268    1.88000000    2.82999992
   17.19916534  141.25100708    1.86000001    2.82999992
   17.20250130  134.01400757    1.94000006    2.82999992
   17.20555687  132.11700439    1.89999998    2.84999990
   17.20888901  130.64300537    1.85000002    2.82999992
   17.21222305  129.46000671    1.83000004    2.84999990
   17.21527863  129.79899597    1.75000000    2.82999992
   17.21861076  133.15199280    1.75000000    2.82999992
   17.22194481  131.04800415    1.75000000    2.84999990
   17.22472191  126.76100159    1.75000000    2.84999990
   17.22527885  125.32700348    1.78999996    2.82999992
   17.22861099  135.95799255    1.78999996    2.84999990
   17.23472214  135.95799255    1.75000000    2.82999992
   17.23888969  128.62399292    1.76999998    2.82999992
   17.24194527  140.22500610    1.78999996    2.82999992
   17.24527740  137.32099915    1.75000000    2.84999990
   17.24861145  126.62500000    1.75000000    2.84999990
   17.25166702  133.11000061    1.71000004    2.82999992
   17.25499916  133.15499878    1.71000004    2.82999992
   17.25805473  128.63000488    1.69000006    2.82999992
   17.25888824  134.52400208    1.69000006    2.82999992
   17.26194382  133.16700745    1.69000006    2.82999992
   17.26527786  132.53300476    1.73000002    2.84999990
   17.26833344  134.88400269    1.76999998    2.82999992
   17.27194405  133.33099365    1.76999998    2.82999992
   17.27750015  133.33099365    1.76999998    2.82999992
   17.28166580  141.72799683    1.76999998    2.84999990
   17.28499985  133.55999756    1.75000000    2.82999992
   17.28805542  141.56399536    1.73000002    2.82999992
   17.29138756  134.00999451    1.73000002    2.82999992
   17.29166603  132.22300720    1.73000002    2.82999992
   17.29500008  134.64599609    1.71000004    2.82999992
   17.29805565  135.04899597    1.69000006    2.84999990
   17.30138779  128.51300049    1.66999996    2.82999992
   17.30472183  129.90699768    1.66999996    2.82999992
   17.30777740  130.27499390    1.66999996    2.82999992
   17.31110954  129.04600525    1.63000000    2.84999990
   17.31444359  131.80000305    1.63000000    2.84999990
   17.32027817  131.80000305    1.63000000    2.82999992
   17.32444572  129.06199646    1.63000000    2.84999990
   17.32500076  128.82099915    1.60000002    2.84999990
   17.32833481  132.02600098    1.58000004    2.84999990
   17.33139038  126.56700134    1.58000004    2.82999992
   17.33472252  127.44400024    1.58000004    2.84999990
   17.33805656  129.27499390    1.60000002    2.84999990
   17.34111214  135.51199341    1.60000002    2.84999990
   17.34444427  129.46800232    1.60000002    2.84999990
   17.34777832  128.17300415    1.60000002    2.84999990
   17.35083389  130.42300415    1.63000000    2.84999990
   17.35416794  129.28399658    1.64999998    2.82999992
   17.35750008  130.86799622    1.63000000    2.84999990
   17.35833359  133.00199890    1.63000000    2.84999990
   17.36333466  133.00199890    1.63000000    2.82999992
   17.36750031  126.70999908    1.63000000    2.84999990
   17.37055588  130.88699341    1.66999996    2.84999990
   17.37388992  131.50399780    1.66999996    2.82999992
   17.37722206  133.54200745    1.66999996    2.84999990
   17.38027763  142.83099365    1.66999996    2.84999990
   17.38361168  134.36500549    1.66999996    2.82999992
   17.38694382  137.04299927    1.66999996    2.84999990
   17.39027786  133.77499390    1.66999996    2.84999990
   17.39166641  135.33799744    1.64999998    2.82999992
   17.39388847  131.09399414    1.64999998    2.82999992
   17.39694405  129.79899597    1.66999996    2.84999990
   17.40027809  133.08500671    1.66999996    2.84999990
   17.40611076  133.08500671    1.66999996    2.84999990
   17.41027832  128.47900391    1.64999998    2.84999990
   17.41361046  132.86500549    1.64999998    2.84999990
   17.41666603  131.36500549    1.64999998    2.84999990
   17.42000008  134.80999756    1.64999998    2.84999990
   17.42305565  135.15199280    1.64999998    2.84999990
   17.42499924  134.97599792    1.64999998    2.84999990
   17.42694473  136.37199402    1.64999998    2.84999990
   17.43027687  133.13800049    1.66999996    2.82999992
   17.43333244  128.00300598    1.69000006    2.84999990
   17.43666649  129.03599548    1.69000006    2.82999992
   17.43972206  131.43699646    1.69000006    2.84999990
   17.44305420  125.97599792    1.71000004    2.82999992
   17.44888878  125.97599792    1.71000004    2.84999990
   17.45305634  130.69200134    1.71000004    2.82999992
   17.45639038  133.92399597    1.71000004    2.84999990
   17.45833397  130.90400696    1.71000004    2.84999990
   17.46000099  129.02099609    1.69000006    2.84999990
   17.46333504  127.57499695    1.64999998    2.84999990
   17.46638870  129.88299561    1.64999998    2.84999990
   17.46972275  129.20100403    1.64999998    2.84999990
   17.47277832  130.96099854    1.64999998    2.84999990
   17.47611237  129.39900208    1.64999998    2.84999990
   17.47944450  132.55900574    1.61000001    2.84999990
   17.48250008  132.94999695    1.61000001    2.84999990
   17.48583412  130.40699768    1.61000001    2.84999990
   17.49194527  130.40699768    1.64999998    2.82999992
   17.49583435  125.64700317    1.69000006    2.82999992
   17.49916649  128.12600708    1.71000004    2.82999992
   17.50250053  128.61099243    1.71000004    2.84999990
   17.50555611  135.04600525    1.71000004    2.84999990
   17.50888824  131.64300537    1.69000006    2.84999990
   17.51222229  129.05299377    1.73000002    2.82999992
   17.51527786  126.87000275    1.76999998    2.84999990
   17.51861000  131.87600708    1.78999996    2.82999992
   17.52194405  131.04499817    1.78999996    2.82999992
   17.52499962  132.42599487    1.75000000    2.84999990
   17.52555466  133.23300171    1.75000000    2.84999990
   17.52888870  129.34399414    1.71000004    2.84999990
   17.53472137  129.34399414    1.71000004    2.84999990
   17.53888893  122.79599762    1.63000000    2.84999990
   17.54194450  123.85099792    1.58000004    2.84999990
   17.54527664  122.13899994    1.55999994    2.84999990
   17.54833221  125.91799927    1.55999994    2.84999990
   17.55166626  124.23400116    1.55999994    2.82999992
   17.55499840  121.79399872    1.55999994    2.82999992
   17.55805397  134.44299316    1.53999996    2.84999990
   17.55861092  130.37500000    1.53999996    2.84999990
   17.56194305  136.17300415    1.53999996    2.82999992
   17.56499863  130.57600403    1.51999998    2.84999990
   17.56833458  132.14799500    1.51999998    2.84999990
   17.57139015  130.09800720    1.51999998    2.84999990
   17.57750130  130.09800720    1.48000002    2.84999990
   17.58166695  133.81599426    1.48000002    2.84999990
   17.58472252  122.86599731    1.48000002    2.84999990
   17.58805656  132.42300415    1.46000004    2.84999990
   17.59138870  131.36399841    1.46000004    2.84999990
   17.59194565  134.43400574    1.46000004    2.84999990
   17.59500122  134.19200134    1.46000004    2.84999990
   17.59833336  133.39199829    1.46000004    2.84999990
   17.60138893  129.11900330    1.48000002    2.84999990
   17.60472298  128.19200134    1.48000002    2.84999990
   17.60777855  134.10800171    1.48000002    2.84999990
   17.61111069  130.83900452    1.48000002    2.84999990
   17.61444473  132.67999268    1.50000000    2.84999990
   17.62027740  132.67999268    1.48000002    2.84999990
   17.62444496  130.17399597    1.48000002    2.84999990
   17.62527847  129.87100220    1.48000002    2.84999990
   17.62805557  128.28300476    1.46000004    2.84999990
   17.63111115  125.13999939    1.44000006    2.84999990
   17.63444519  127.45200348    1.44000006    2.84999990
   17.63750076  127.97499847    1.39999998    2.86999989
   17.64083290  130.72900391    1.39999998    2.86999989
   17.64416695  123.99199677    1.39999998    2.84999990
   17.64722252  131.52400208    1.39999998    2.84999990
   17.65055466  132.02499390    1.38000000    2.84999990
   17.65388870  133.69200134    1.38000000    2.84999990
   17.65694427  126.61000061    1.41999996    2.84999990
   17.65861130  130.96099854    1.41999996    2.84999990
   17.66305542  130.96099854    1.44000006    2.84999990
   17.66722107  131.23699951    1.46000004    2.82999992
   17.67055511  137.66099548    1.46000004    2.82999992
   17.67361069  136.94099426    1.50000000    2.84999990
   17.67694473  135.97399902    1.50000000    2.84999990
   17.68027687  130.65600586    1.51999998    2.84999990
   17.68361092  129.88000488    1.48000002    2.84999990
   17.68666649  129.24699402    1.48000002    2.84999990
   17.68999863  125.68299866    1.48000002    2.82999992
   17.69194412  126.38600159    1.48000002    2.82999992
   17.69361115  128.57000732    1.48000002    2.82999992
   17.69666672  125.55899811    1.46000004    2.84999990
   17.70000076  132.92700195    1.44000006    2.84999990
   17.70611191  132.92700195    1.39999998    2.84999990
   17.71000099  132.64500427    1.39999998    2.84999990
   17.71333504  127.93099976    1.39999998    2.84999990
   17.71666718  133.60400391    1.39999998    2.84999990
   17.71972275  131.31199646    1.39999998    2.84999990
   17.72305679  140.62600708    1.41999996    2.84999990
   17.72527885  132.85499573    1.44000006    2.84999990
   17.72666740  135.75399780    1.44000006    2.84999990
   17.72972298  144.60400391    1.46000004    2.84999990
   17.73305511  126.90799713    1.46000004    2.84999990
   17.73638916  128.41400146    1.44000006    2.84999990
   17.73972321  137.75399780    1.46000004    2.84999990
   17.74277878  133.57699585    1.48000002    2.84999990
   17.74888992  133.57699585    1.53999996    2.84999990
   17.75305557  129.52299500    1.58000004    2.82999992
   17.75611115  131.30499268    1.58000004    2.82999992
   17.75861168  132.81700134    1.61000001    2.82999992
   17.76000023  131.66299438    1.61000001    2.82999992
   17.76305580  133.59800720    1.63000000    2.84999990
   17.76638794  127.91300201    1.63000000    2.84999990
   17.76972198  129.47799683    1.63000000    2.84999990
   17.77277756  128.24400330    1.53999996    2.84999990
   17.77611160  134.66000366    1.63000000    2.82999992
   17.77916718  134.00999451    1.64999998    2.82999992
   17.78249931  138.05400085    1.64999998    2.84999990
   17.78583336  135.41499329    1.64999998    2.82999992
   17.79166603  135.41499329    1.64999998    2.82999992
   17.79583359  140.73800659    1.63000000    2.82999992
   17.79916573  128.41099548    1.64999998    2.82999992
   17.80222130  128.27499390    1.64999998    2.82999992
   17.80555534  131.42199707    1.61000001    2.82999992
   17.80861092  132.89500427    1.60000002    2.82999992
   17.81222153  135.37100220    1.60000002    2.82999992
   17.81527710  135.82200623    1.60000002    2.82999992
   17.81861115  136.31700134    1.60000002    2.82999992
   17.82166672  136.37500000    1.61000001    2.84999990
   17.82500076  136.08200073    1.61000001    2.82999992
   17.82666779  136.32200623    1.63000000    2.82999992
   17.82861137  128.74800110    1.63000000    2.82999992
   17.83444595  128.74800110    1.63000000    2.82999992
   17.83861160  135.81900024    1.63000000    2.82999992
   17.84194565  131.97399902    1.63000000    2.82999992
   17.84527779  131.44099426    1.63000000    2.82999992
   17.84833336  132.12600708    1.64999998    2.82999992
   17.85166740  126.42299652    1.63000000    2.82999992
   17.85472298  125.02700043    1.61000001    2.82999992
   17.85805511  130.77600098    1.60000002    2.84999990
   17.86000061  130.85400391    1.60000002    2.84999990
   17.86166763  129.38600159    1.58000004    2.82999992
   17.86472321  132.19400024    1.55999994    2.82999992
   17.86805534  129.63000488    1.51999998    2.84999990
   17.87138939  128.40800476    1.51999998    2.84999990
   17.87750053  128.40800476    1.53999996    2.84999990
   17.88166618  140.48300171    1.53999996    2.82999992
   17.88472176  132.86700439    1.53999996    2.84999990
   17.88805580  133.35600281    1.50000000    2.84999990
   17.89111137  130.57899475    1.50000000    2.84999990
   17.89361191  135.19500732    1.50000000    2.84999990
   17.89500046  135.41799927    1.51999998    2.84999990
   17.89805603  139.75900269    1.51999998    2.84999990
   17.90138817  132.02799988    1.51999998    2.82999992
   17.90444374  137.23399353    1.53999996    2.84999990
   17.90777779  133.13499451    1.51999998    2.82999992
   17.91110992  130.82099915    1.50000000    2.84999990
   17.91416550  133.51499939    1.50000000    2.84999990
   17.92027664  133.51499939    1.51999998    2.84999990
   17.92444420  131.76400757    1.55999994    2.84999990
   17.92694473  131.61199951    1.53999996    2.84999990
   17.92805481  138.24499512    1.53999996    2.84999990
   17.93111038  136.79699707    1.53999996    2.84999990
   17.93444443  138.42999268    1.55999994    2.82999992
   17.93750000  130.94700623    1.55999994    2.84999990
   17.94083214  135.76699829    1.55999994    2.84999990
   17.94416618  129.37600708    1.58000004    2.84999990
   17.94722176  136.87100220    1.60000002    2.82999992
   17.95055580  127.05500031    1.60000002    2.82999992
   17.95388985  134.07699585    1.61000001    2.82999992
   17.95722389  139.95300293    1.61000001    2.82999992
   17.96305656  139.95300293    1.66999996    2.82999992
   17.96722221  129.40400696    1.66999996    2.82999992
   17.97055626  138.99800110    1.66999996    2.84999990
   17.97361183  131.77299500    1.71000004    2.84999990
   17.97694588  138.45300293    1.71000004    2.80999994
   17.98000145  138.62699890    1.75000000    2.82999992
   17.98333359  131.37199402    1.73000002    2.82999992
   17.98666763  135.84700012    1.71000004    2.84999990
   17.98972321  140.46600342    1.71000004    2.84999990
   17.99305534  139.58799744    1.69000006    2.84999990
   17.99388885  137.72799683    1.69000006    2.84999990
   17.99666786  139.94799805    1.66999996    2.84999990
   18.00000000  137.93600464    1.66999996    2.84999990
   18.00583267  137.93600464    1.64999998    2.82999992
   18.01000023  131.77900696    1.64999998    2.84999990
   18.01333427  136.27900696    1.64999998    2.84999990
   18.01666641  132.33500671    1.63000000    2.84999990
   18.01972198  131.67599487    1.55999994    2.84999990
   18.02305603  139.84599304    1.51999998    2.84999990
   18.02638817  135.19500732    1.48000002    2.84999990
   18.02722168  131.66700745    1.48000002    2.84999990
   18.02972221  131.66900635    1.48000002    2.84999990
   18.03305435  134.39500427    1.46000004    2.84999990
   18.03610992  133.91299438    1.46000004    2.84999990
   18.03944397  132.71000671    1.46000004    2.84999990
   18.04249954  140.52900696    1.44000006    2.84999990
   18.04888916  140.52900696    1.46000004    2.86999989
   18.05277634  140.08700562    1.46000004    2.84999990
   18.05611038  136.00700378    1.44000006    2.84999990
   18.05944443  146.29699707    1.44000006    2.82999992
   18.06083298  140.65199280    1.44000006    2.82999992
   18.06305504  143.23800659    1.44000006    2.84999990
   18.06611061  138.00500488    1.44000006    2.84999990
   18.06944466  143.09399414    1.44000006    2.84999990
   18.07277870  140.45599365    1.46000004    2.84999990
   18.07583427  135.66999817    1.46000004    2.84999990
   18.07916832  144.03500366    1.46000004    2.84999990
   18.08222389  134.76300049    1.46000004    2.84999990
   18.08555603  134.59599304    1.53999996    2.82999992
   18.09166718  134.59599304    1.61000001    2.84999990
   18.11000061  132.61000061    1.66999996    2.82999992
   18.11333466  126.21399689    1.85000002    2.82999992
   18.11638832  137.40600586    1.94000006    2.82999992
   18.11972237  137.31100464    1.96000004    2.82999992
   18.12305641  135.62500000    1.86000001    2.82999992
   18.12611198  139.80499268    1.75000000    2.82999992
   18.12944412  131.37699890    1.75000000    2.82999992
   18.13472176  131.37699890    1.64999998    2.82999992
   18.13888931  142.22900391    1.63000000    2.84999990
   18.14194489  145.20100403    1.58000004    2.82999992
   18.14305496  138.06300354    1.58000004    2.82999992
   18.14583397  133.44799805    1.58000004    2.84999990
   18.14888954  139.44000244    1.58000004    2.82999992
   18.15222168  140.97200012    1.58000004    2.82999992
   18.15555573  138.61099243    1.58000004    2.84999990
   18.15861130  142.46800232    1.60000002    2.84999990
   18.16194344  144.68800354    1.60000002    2.84999990
   18.16499901  138.22799683    1.60000002    2.82999992
   18.16833305  137.15699768    1.60000002    2.84999990
   18.17166519  143.93800354    1.61000001    2.82999992
   18.17749977  143.93800354    1.63000000    2.82999992
   18.18166542  136.89100647    1.63000000    2.82999992
   18.18499947  142.97300720    1.58000004    2.84999990
   18.18805504  145.63000488    1.51999998    2.84999990
   18.19138718  144.40400696    1.51999998    2.82999992
   18.19444275  136.31900024    1.51999998    2.82999992
   18.19777679  146.47300720    1.51999998    2.84999990
   18.20111275  140.77400208    1.51999998    2.84999990
   18.20416832  142.20599365    1.55999994    2.82999992
   18.20750046  143.43200684    1.55999994    2.84999990
   18.20972252  141.39900208    1.55999994    2.82999992
   18.21111107  132.79299927    1.55999994    2.82999992
   18.21416664  144.26400757    1.55999994    2.82999992
   18.22027779  144.26400757    1.58000004    2.82999992
   18.22444534  142.05599976    1.58000004    2.84999990
   18.22777748  132.40899658    1.58000004    2.84999990
   18.23083305  134.19599915    1.58000004    2.82999992
   18.23416710  130.57699585    1.58000004    2.84999990
   18.23750114  133.20700073    1.58000004    2.84999990
   18.24055672  133.53199768    1.58000004    2.82999992
   18.24305534  131.74400330    1.53999996    2.82999992
   18.24444389  134.74600220    1.53999996    2.82999992
   18.24749947  137.14900208    1.53999996    2.84999990
   18.25083351  169.20100403    1.53999996    2.82999992
   18.25388908  135.57000732    1.53999996    2.84999990
   18.25722313  140.31500244    1.51999998    2.82999992
   18.26333427  140.31500244    1.51999998    2.82999992
   18.26722145  138.18800354    1.51999998    2.84999990
   18.27055550  135.75799561    1.50000000    2.84999990
   18.27388954  137.96000671    1.50000000    2.82999992
   18.27638817  142.93699646    1.50000000    2.84999990
   18.27750015  135.22300720    1.50000000    2.84999990
   18.28083229  134.62199402    1.48000002    2.84999990
   18.28388786  130.53799438    1.48000002    2.82999992
   18.28722191  150.96000671    1.48000002    2.82999992
   18.29027748  134.03599548    1.48000002    2.82999992
   18.29361153  131.60099792    1.48000002    2.84999990
   18.29694366  143.08999634    1.46000004    2.84999990
   18.29999924  140.36500549    1.44000006    2.84999990
   18.30611038  140.36500549    1.41999996    2.82999992
   18.31027794  145.59700012    1.44000006    2.84999990
   18.31333351  142.98899841    1.44000006    2.84999990
   18.31666756  139.57499695    1.48000002    2.84999990
   18.32000160  141.38600159    1.48000002    2.84999990
   18.32305717  133.83000183    1.51999998    2.82999992
   18.32638931  137.20199585    1.58000004    2.84999990
   18.32972336  143.68600464    1.61000001    2.82999992
   18.33277893  140.87399292    1.61000001    2.82999992
   18.33611107  141.00900269    1.61000001    2.82999992
   18.33916664  132.11399841    1.63000000    2.82999992
   18.34250069  141.76199341    1.63000000    2.82999992
   18.34305573  143.36700439    1.63000000    2.82999992
   18.34889030  143.36700439    1.64999998    2.82999992
   18.35305595  141.64100647    1.66999996    2.82999992
   18.35639000  140.21800232    1.69000006    2.82999992
   18.35944557  143.94999695    1.69000006    2.82999992
   18.36277771  136.78199768    1.71000004    2.82999992
   18.36583328  144.00700378    1.71000004    2.82999992
   18.36916733  144.32299805    1.69000006    2.82999992
   18.37249947  143.34300232    1.69000006    2.82999992
   18.37555504  143.41099548    1.66999996    2.84999990
   18.37638855  143.14599609    1.66999996    2.84999990
   18.37944412  141.40899658    1.64999998    2.82999992
   18.38249969  136.42300415    1.64999998    2.82999992
   18.38583374  144.09100342    1.64999998    2.82999992
   18.39166641  144.09100342    1.63000000    2.82999992
   18.39583397  145.02999878    1.61000001    2.82999992
   18.39916611  138.40899658    1.61000001    2.84999990
   18.40222168  137.31700134    1.58000004    2.84999990
   18.40555573  133.88600159    1.58000004    2.84999990
   18.40888786  140.96200562    1.58000004    2.84999990
   18.40972137  146.10699463    1.58000004    2.82999992
   18.41250038  145.57699585    1.58000004    2.82999992
   18.41583252  146.02299500    1.58000004    2.84999990
   18.41888809  139.71200562    1.55999994    2.84999990
   18.42222214  140.75399780    1.55999994    2.82999992
   18.42527771  137.75300598    1.55999994    2.82999992
   18.42860985  144.58500671    1.55999994    2.82999992
   18.43472099  144.58500671    1.53999996    2.82999992
   18.43861008  142.43699646    1.53999996    2.82999992
   18.44194412  140.80900574    1.51999998    2.84999990
   18.44305420  143.28599548    1.51999998    2.84999990
   18.44555473  141.19700623    1.51999998    2.84999990
   18.44861031  142.37199402    1.53999996    2.82999992
   18.45194435  150.04899597    1.51999998    2.84999990
   18.45527840  144.63000488    1.51999998    2.82999992
   18.45833397  145.63800049    1.51999998    2.82999992
   18.46166801  151.67199707    1.51999998    2.82999992
   18.46500015  141.16999817    1.51999998    2.82999992
   18.46805573  147.32200623    1.53999996    2.84999990
   18.47138977  131.18400574    1.55999994    2.82999992
   18.47750092  131.18400574    1.55999994    2.82999992
   18.48166656  146.36399841    1.58000004    2.82999992
   18.48472214  145.05499268    1.60000002    2.82999992
   18.48805618  134.71699524    1.63000000    2.82999992
   18.49138832  145.63499451    1.63000000    2.80999994
   18.49444389  136.13600159    1.64999998    2.82999992
   18.49777794  146.61199951    1.66999996    2.84999990
   18.50083351  141.43899536    1.69000006    2.82999992
   18.50416756  139.61300659    1.69000006    2.82999992
   18.50749969  144.33200073    1.69000006    2.82999992
   18.50972176  142.10000610    1.69000006    2.82999992
   18.51111031  126.13200378    1.69000006    2.82999992
   18.51416588  143.80900574    1.69000006    2.82999992
   18.52027702  143.80900574    1.66999996    2.82999992
   18.52444458  148.04699707    1.66999996    2.82999992
   18.52777672  141.94900513    1.64999998    2.82999992
   18.53083229  148.51499939    1.64999998    2.82999992
   18.53416634  144.80400085    1.64999998    2.82999992
   18.53722191  143.59500122    1.63000000    2.82999992
   18.54055595  143.61799622    1.63000000    2.82999992
   18.54305458  139.51199341    1.64999998    2.82999992
   18.54416656  118.36699677    1.64999998    2.82999992
   18.54749870  143.45100403    1.64999998    2.82999992
   18.55055428  138.86900330    1.64999998    2.82999992
   18.55388832  144.05200195    1.64999998    2.82999992
   18.55694389  143.17999268    1.66999996    2.82999992
   18.56305504  143.17999268    1.71000004    2.82999992
   18.56722260  142.11500549    1.69000006    2.82999992
   18.57055664  140.62800598    1.71000004    2.82999992
   18.57389069  137.95799255    1.66999996    2.82999992
   18.57638931  138.14100647    1.64999998    2.82999992
   18.57750130  136.55499268    1.64999998    2.82999992
   18.58083344  134.56599426    1.64999998    2.82999992
   18.58416748  135.33999634    1.63000000    2.80999994
   18.58722305  133.92399597    1.63000000    2.82999992
   18.59055710  132.77600098    1.63000000    2.80999994
   18.59388924  133.85400391    1.63000000    2.80999994
   18.59694481  132.68699646    1.61000001    2.82999992
   18.60027885  138.44700623    1.61000001    2.82999992
   18.60611153  138.44700623    1.63000000    2.82999992
   18.61027908  130.79100037    1.63000000    2.82999992
   18.61333466  127.43699646    1.61000001    2.82999992
   18.61666679  143.20500183    1.63000000    2.82999992
   18.62000084  132.80900574    1.63000000    2.82999992
   18.62305641  136.46699524    1.63000000    2.82999992
   18.62638855  134.57299805    1.63000000    2.82999992
   18.62944412  140.57699585    1.63000000    2.82999992
   18.63277817  141.45399475    1.63000000    2.82999992
   18.63611031  145.09399414    1.61000001    2.80999994
   18.63916588  150.67900085    1.60000002    2.82999992
   18.64249992  139.07800293    1.60000002    2.82999992
   18.64305496  144.91099548    1.60000002    2.82999992
   18.64888954  144.91099548    1.60000002    2.82999992
   18.65305519  131.65199280    1.60000002    2.82999992
   18.65611076  132.35600281    1.60000002    2.82999992
   18.65944481  142.36700439    1.60000002    2.82999992
   18.66277695  142.13099670    1.61000001    2.82999992
   18.66583252  142.36399841    1.63000000    2.82999992
   18.66916656  140.26300049    1.64999998    2.82999992
   18.67222214  139.06799316    1.66999996    2.80999994
   18.67555428  135.15800476    1.64999998    2.80999994
   18.67638779  133.86399841    1.64999998    2.80999994
   18.67916679  136.05400085    1.66999996    2.82999992
   18.68249893  135.24499512    1.66999996    2.82999992
   18.68555450  140.18299866    1.66999996    2.82999992
   18.69166565  140.18299866    1.69000006    2.82999992
   18.69583321  139.00399780    1.69000006    2.82999992
   18.69916534  129.21600342    1.73000002    2.80999994
   18.70222282  136.14799500    1.75000000    2.80999994
   18.70555687  130.54899597    1.75000000    2.80999994
   18.70861244  128.16200256    1.75000000    2.82999992
   18.70972252  124.47699738    1.73000002    2.80999994
   18.71222305  129.32099915    1.75000000    2.82999992
   18.71555710  128.55799866    1.75000000    2.82999992
   18.71861076  129.65699768    1.76999998    2.80999994
   18.72194481  127.43699646    1.78999996    2.82999992
   18.72500038  121.20400238    1.78999996    2.80999994
   18.72833443  120.66799927    1.78999996    2.80999994
   18.73444557  120.66799927    1.80999994    2.80999994
   18.73861122  130.28399658    1.86000001    2.80999994
   18.74194527  125.49600220    1.86000001    2.80999994
   18.74305534  127.99600220    1.85000002    2.80999994
   18.74555588  119.13600159    1.85000002    2.80999994
   18.74888992  123.68699646    1.86000001    2.80999994
   18.75194359  121.75199890    1.86000001    2.80999994
   18.75527763  120.33100128    1.86000001    2.82999992
   18.75861168  124.80799866    1.83000004    2.80999994
   18.76166725  126.40499878    1.83000004    2.80999994
   18.76499939  120.05100250    1.85000002    2.80999994
   18.76805496  128.28599548    1.85000002    2.80999994
   18.77138901  122.03399658    1.85000002    2.80999994
   18.77750015  122.03399658    1.86000001    2.82999992
   18.78166580  127.85500336    1.86000001    2.80999994
   18.78472137  124.69999695    1.86000001    2.82999992
   18.78805542  126.81900024    1.86000001    2.82999992
   18.79138756  128.77099609    1.86000001    2.82999992
   18.79444313  121.55400085    1.83000004    2.80999994
   18.79777718  128.53799438    1.83000004    2.80999994
   18.80083275  132.72300720    1.86000001    2.82999992
   18.80416679  134.68600464    1.85000002    2.80999994
   18.80749893  128.32200623    1.85000002    2.80999994
   18.80972099  118.14600372    1.86000001    2.80999994
   18.81110954  130.33500671    1.86000001    2.80999994
   18.81444359  126.81099701    1.83000004    2.82999992
   18.82027817  126.81099701    1.80999994    2.82999992
   18.82444572  127.84799957    1.83000004    2.80999994
   18.82750130  132.30799866    1.83000004    2.80999994
   18.83083344  127.43800354    1.78999996    2.80999994
   18.83416748  122.54799652    1.80999994    2.80999994
   18.83722305  130.07600403    1.78999996    2.78999996
   18.84055710  128.89199829    1.78999996    2.78999996
   18.84305573  129.60400391    1.80999994    2.82999992
   18.84416771  130.71699524    1.80999994    2.82999992
   18.84749985  130.19999695    1.80999994    2.80999994
   18.85055542  129.14399719    1.85000002    2.80999994
   18.85388947  130.48300171    1.85000002    2.82999992
   18.85722351  131.10400391    1.85000002    2.82999992
   18.86305618  131.10400391    1.85000002    2.82999992
   18.86722183  124.05599976    1.85000002    2.80999994
   18.87055588  131.09700012    1.85000002    2.80999994
   18.87361145  138.33599854    1.83000004    2.80999994
   18.87638855  126.96800232    1.83000004    2.80999994
   18.87722206  127.48300171    1.83000004    2.80999994
   18.88055611  131.63400269    1.85000002    2.80999994
   18.88361168  130.21899414    1.83000004    2.82999992
   18.88694382  126.51599884    1.85000002    2.82999992
   18.88999939  128.52499390    1.85000002    2.82999992
   18.89333344  122.72100067    1.83000004    2.82999992
   18.89666748  129.94999695    1.83000004    2.82999992
   18.89972115  129.87500000    1.83000004    2.82999992
   18.90583229  129.87500000    1.85000002    2.80999994
   18.90999985  131.41099548    1.85000002    2.80999994
   18.91333389  132.39799500    1.85000002    2.82999992
   18.91638756  129.10099792    1.85000002    2.80999994
   18.91972160  138.06500244    1.85000002    2.80999994
   18.92305565  122.15100098    1.85000002    2.80999994
   18.92611122  133.17599487    1.85000002    2.80999994
   18.92972183  131.07800293    1.85000002    2.80999994
   18.93305397  121.11799622    1.85000002    2.80999994
   18.93610954  125.78299713    1.86000001    2.80999994
   18.93944359  128.08700562    1.86000001    2.80999994
   18.94277763  132.58599854    1.85000002    2.80999994
   18.94305420  136.25300598    1.85000002    2.80999994
   18.94888878  136.25300598    1.85000002    2.80999994
   18.95277786  136.04699707    1.85000002    2.80999994
   18.95611191  128.56100464    1.83000004    2.80999994
   18.95944595  129.04699707    1.80999994    2.82999992
   18.96250153  133.56100464    1.80999994    2.82999992
   18.96583366  129.33700562    1.78999996    2.80999994
   18.96916771  129.08200073    1.76999998    2.80999994
   18.97222328  127.59500122    1.76999998    2.80999994
   18.97555542  136.94599915    1.76999998    2.80999994
   18.97666740  133.17300415    1.75000000    2.82999992
   18.97916794  128.93800354    1.75000000    2.82999992
   18.98250008  131.01199341    1.73000002    2.80999994
   18.98555565  129.44500732    1.73000002    2.80999994
   18.99166679  129.44500732    1.73000002    2.80999994
   18.99583435  126.60099792    1.73000002    2.82999992
   18.99888992  133.78900146    1.71000004    2.82999992
   19.00222206  132.82699585    1.71000004    2.82999992
   19.00555611  130.35200500    1.69000006    2.82999992
   19.00861168  136.61700439    1.66999996    2.82999992
   19.00972176  136.24200439    1.66999996    2.82999992
   19.01222229  137.00100708    1.66999996    2.80999994
   19.01555634  132.76600647    1.66999996    2.80999994
   19.01861000  132.64100647    1.71000004    2.82999992
   19.02194405  140.71899414    1.73000002    2.82999992
   19.02527809  129.53300476    1.73000002    2.82999992
   19.02833366  130.95100403    1.73000002    2.80999994
   19.03444481  130.95100403    1.75000000    2.80999994
   19.03861046  126.42900085    1.73000002    2.80999994
   19.04194450  128.21400452    1.73000002    2.80999994
   19.04305458  126.80000305    1.73000002    2.80999994
   19.04527664  130.80599976    1.73000002    2.80999994
   19.04861069  126.98500061    1.75000000    2.80999994
   19.05194283  129.79200745    1.75000000    2.80999994
   19.05499840  133.48199463    1.75000000    2.80999994
   19.05833244  125.77500153    1.76999998    2.80999994
   19.06138802  132.13699341    1.76999998    2.80999994
   19.06472206  127.72899628    1.78999996    2.80999994
   19.06805611  130.46800232    1.78999996    2.80999994
   19.07111168  130.91999817    1.78999996    2.82999992
   19.07722282  130.91999817    1.80999994    2.80999994
   19.08139038  132.97399902    1.80999994    2.80999994
   19.08472252  134.75300598    1.83000004    2.80999994
   19.08777809  132.52400208    1.83000004    2.80999994
   19.09111214  132.21600342    1.85000002    2.82999992
   19.09444427  131.30499268    1.83000004    2.80999994
   19.09749985  129.78100586    1.85000002    2.80999994
   19.10083389  133.57499695    1.85000002    2.80999994
   19.10416794  134.73599243    1.86000001    2.80999994
   19.10722351  137.06500244    1.86000001    2.80999994
   19.11000061  136.47999573    1.88000000    2.80999994
   19.13055611  136.47999573    1.88000000    2.80999994
   19.13444519  138.46499634    1.88000000    2.80999994
   19.13777733  135.76800537    1.88000000    2.80999994
   19.14111137  133.79800415    1.89999998    2.80999994
   19.14305496  131.23500061    1.89999998    2.80999994
   19.14472198  136.10600281    1.89999998    2.80999994
   19.14805603  142.02900696    1.91999996    2.80999994
   19.15138817  133.72399902    1.91999996    2.80999994
   19.15444374  136.65800476    1.91999996    2.78999996
   19.15777779  136.73599243    1.96000004    2.80999994
   19.16110992  143.38099670    2.00000000    2.80999994
   19.16416550  142.03399658    2.03999996    2.78999996
   19.16749954  131.19000244    2.17000008    2.78999996
   19.17305565  131.19000244    2.13000011    2.80999994
   19.17722130  137.21600342    2.11999989    2.78999996
   19.18055534  141.68699646    2.11999989    2.78999996
   19.18388748  133.27499390    2.09999990    2.80999994
   19.18694305  135.34300232    2.05999994    2.78999996
   19.19027710  138.78799438    2.05999994    2.78999996
   19.19333267  129.74899292    2.05999994    2.78999996
   19.19666672  134.13800049    2.07999992    2.78999996
   19.20000076  128.51800537    2.09999990    2.76999998
   19.20305634  138.55599976    2.11999989    2.78999996
   19.20639038  131.52799988    2.11999989    2.76999998
   19.20972252  135.94299316    2.13000011    2.78999996
   19.21000099  136.95100403    2.13000011    2.78999996
   19.21611214  136.95100403    2.11999989    2.78999996
   19.22027779  131.84500122    2.11999989    2.78999996
   19.22333336  136.60699463    2.09999990    2.78999996
   19.22666740  131.01499939    2.09999990    2.78999996
   19.22972298  137.76899719    2.09999990    2.80999994
   19.23305511  128.96699524    2.07999992    2.78999996
   19.23638916  123.30799866    2.05999994    2.78999996
   19.23944473  133.42100525    2.05999994    2.78999996
   19.24277878  128.34899902    2.05999994    2.78999996
   19.24333382  131.64300537    2.05999994    2.78999996
   19.24638939  135.32800293    2.03999996    2.78999996
   19.24972153  132.80900574    2.03999996    2.78999996
   19.25277710  135.75100708    2.01999998    2.78999996
   19.25888824  135.75100708    1.98000002    2.78999996
   19.26305580  135.89300537    1.96000004    2.78999996
   19.26611137  135.00300598    1.96000004    2.78999996
   19.26944351  135.63699341    1.96000004    2.78999996
   19.27277756  136.97500610    1.94000006    2.78999996
   19.27583313  133.06300354    1.91999996    2.78999996
   19.27666664  137.12699890    1.91999996    2.78999996
   19.27944374  135.69900513    4.90999985    2.82999992
   19.28277779  129.12500000    0.15000001    0.47999999
   19.28583336  131.52600098    0.09000000    0.23000000
   19.28916550  139.26699829    0.05000000    0.03000000
   19.29222107  128.45500183    0.05000000    0.03000000
   19.29555511  124.37200165    0.05000000    0.03000000
   19.30166626  124.37200165    0.05000000    0.03000000
   19.30583191  133.64799500    0.05000000    0.03000000
   19.30916595  130.50999451    0.05000000    0.03000000
   19.30999947  123.61000061    0.05000000    0.03000000
   19.31277657  129.41900635    0.05000000    0.03000000
   19.31611061  126.53900146    0.05000000    0.03000000
   19.31916809  126.72599792    0.05000000    0.03000000
   19.32250023  130.28199768    0.05000000    0.03000000
   19.32555580  127.68199921    0.05000000    0.03000000
   19.32888985  128.43299866    0.05000000    0.03000000
   19.33222389  130.17999268    0.05000000    0.03000000
   19.33527756  131.05000305    0.05000000    0.03000000
   19.33861160  121.57199860    0.05000000    0.03000000
   19.34444427  121.57199860    0.05000000    0.03000000
   19.34861183  127.05999756    0.05000000    0.03000000
   19.35194397  127.31300354    0.05000000    0.03000000
   19.35527802  131.15100098    0.05000000    0.03000000
   19.35833359  132.90600586    0.05000000    0.03000000
   19.36166763  125.97599792    0.05000000    0.03000000
   19.36472321  124.80999756    0.05000000    0.03000000
   19.36805534  123.26200104    0.05000000    0.03000000
   19.37138939  127.83899689    0.05000000    0.03000000
   19.37444496  133.14500427    0.05000000    0.03000000
   19.37666702  126.38099670    0.05000000    0.03000000
   19.37805557  129.34399414    0.05000000    0.03000000
   19.38138962  121.82499695    0.05000000    0.03000000
   19.38750076  121.82499695    0.05000000    0.03000000
   19.39166641  125.82599640    0.05000000    0.03000000
   19.39472198  130.24099731    0.05000000    0.03000000
   19.39805603  129.96299744    0.05000000    0.03000000
   19.40111160  126.34500122    0.05000000    0.03000000
   19.40444374  133.86900330    0.05000000    0.03000000
   19.40777779  129.66900635    0.05000000    0.03000000
   19.40999985  121.23500061    0.05000000    0.03000000
   19.41138840  128.10000610    0.05000000    0.03000000
   19.41472244  130.44700623    0.05000000    0.03000000
   19.41777802  132.57200623    0.05000000    0.03000000
   19.42111015  128.44599915    0.05000000    0.03000000
   19.42444420  123.43599701    0.05000000    0.03000000
   19.43027687  123.43599701    0.05000000    0.03000000
   19.43444443  128.40600586    0.05000000    0.03000000
   19.43750000  124.22599792    0.05000000    0.03000000
   19.44083214  125.06800079    0.05000000    0.03000000
   19.44333267  121.23799896    0.05000000    0.03000000
   19.44444275  126.22200012    0.05000000    0.03000000
   19.44777679  126.81500244    0.05000000    0.03000000
   19.45083427  122.83200073    0.05000000    0.03000000
   19.45416832  133.19400024    0.05000000    0.03000000
   19.45750046  124.56999969    0.05000000    0.03000000
   19.46055603  134.83599854    0.05000000    0.03000000
   19.46389008  130.22000122    0.05000000    0.03000000
   19.46694565  132.13999939    0.05000000    0.03000000
   19.47305679  132.13999939    0.05000000    0.03000000
   19.47722244  128.65199280    0.05000000    0.03000000
   19.48055649  133.69799805    0.05000000    0.03000000
   19.48361206  125.90100098    0.05000000    0.03000000
   19.48694420  126.71499634    0.05000000    0.03000000
   19.49027824  128.51499939    0.05000000    0.03000000
   19.49333382  120.83799744    0.05000000    0.03000000
   19.49666786  132.08099365    0.05000000    0.03000000
   19.49972153  126.15000153    0.05000000    0.03000000
   19.50305557  123.80000305    0.05000000    0.03000000
   19.50638962  120.42700195    0.05000000    0.03000000
   19.50944519  128.76699829    0.05000000    0.03000000
   19.51000023  124.27500153    0.05000000    0.03000000
   19.51583290  124.27500153    0.05000000    0.03000000
   19.52000046  130.93600464    0.05000000    0.03000000
   19.52333260  122.94100189    0.05000000    0.03000000
   19.52666664  126.19899750    0.05000000    0.03000000
   19.52972221  126.91500092    0.05000000    0.03000000
   19.53305435  122.65699768    0.05000000    0.03000000
   19.53610992  126.21700287    0.05000000    0.03000000
   19.53944397  123.34100342    0.05000000    0.03000000
   19.54277802  126.72299957    0.05000000    0.03000000
   19.54333305  124.59200287    0.05000000    0.03000000
   19.54611015  127.07199860    0.05000000    0.03000000
   19.54944420  129.10200500    0.05000000    0.03000000
   19.55249977  134.01499939    0.05000000    0.03000000
   19.55888748  134.01499939    0.05000000    0.03000000
   19.56305504  131.86300659    0.05000000    0.03000000
   19.56611061  129.45399475    0.05000000    0.03000000
   19.56944466  128.83799744    0.05000000    0.03000000
   19.57250023  130.11000061    0.05000000    0.03000000
   19.57583427  135.91999817    0.05000000    0.03000000
   19.57666779  133.90199280    0.05000000    0.03000000
   19.57944489  134.93299866    0.05000000    0.03000000
   19.58277893  136.52099609    0.05000000    0.03000000
   19.58583450  128.30099487    0.05000000    0.03000000
   19.58916664  124.85099792    0.05000000    0.03000000
   19.59250069  134.24200439    0.05000000    0.03000000
   19.59555626  135.59399414    0.05000000    0.03000000
   19.60166740  135.59399414    0.05000000    0.03000000
   19.60583305  137.81599426    0.05000000    0.03000000
   19.60888863  131.82800293    0.05000000    0.03000000
   19.61000061  130.57800293    0.05000000    0.03000000
   19.61250114  128.89399719    0.05000000    0.03000000
   19.61583328  131.25100708    0.05000000    0.03000000
   19.61888885  127.17900085    0.05000000    0.03000000
   19.62222290  131.39199829    0.05000000    0.03000000
   19.62555504  138.46600342    0.05000000    0.03000000
   19.62861061  130.75199890    0.05000000    0.03000000
   19.63194466  131.01100159    0.05000000    0.03000000
   19.63527679  130.67599487    0.05000000    0.03000000
   19.63833237  125.58699799    0.05000000    0.03000000
   19.64444351  125.58699799    0.05000000    0.03000000
   19.64861107  131.94999695    0.05000000    0.03000000
   19.65194321  128.30299377    0.05000000    0.03000000
   19.65499878  131.29100037    0.05000000    0.03000000
   19.65833282  133.90499878    0.05000000    0.03000000
   19.66166687  132.68099976    0.05000000    0.03000000
   19.66472244  132.31100464    0.05000000    0.03000000
   19.66805458  133.98199463    0.05000000    0.03000000
   19.67111015  129.07499695    0.05000000    0.03000000
   19.67444420  129.69999695    0.05000000    0.03000000
   19.67694473  135.31900024    0.05000000    0.03000000
   19.67805481  134.19700623    0.05000000    0.03000000
   19.68138885  134.04800415    0.05000000    0.03000000
   19.68722153  134.04800415    0.05000000    0.03000000
   19.69138718  134.76600647    0.05000000    0.03000000
   19.69472122  133.78500366    0.05000000    0.03000000
   19.69805527  131.47799683    0.05000000    0.03000000
   19.70111275  126.65799713    0.05000000    0.03000000
   19.70444489  131.35400391    0.05000000    0.03000000
   19.70750046  125.32199860    0.05000000    0.03000000
   19.71000099  128.75199890    0.05000000    0.03000000
   19.71111107  128.36700439    0.05000000    0.03000000
   19.71444511  127.63099670    0.05000000    0.03000000
   19.71750069  121.81800079    0.05000000    0.03000000
   19.72083473  136.49600220    0.05000000    0.03000000
   19.72416687  135.79400635    0.05000000    0.03000000
   19.73027802  135.79400635    0.05000000    0.03000000
   19.73444557  133.62399292    0.05000000    0.03000000
   19.73750114  130.79400635    0.05000000    0.03000000
   19.74083328  183.62699890    0.05000000    0.03000000
   19.74361229  123.30200195    0.05000000    0.03000000
   19.74444389  124.09300232    0.05000000    0.03000000
   19.74777794  126.17299652    0.05000000    0.03000000
   19.75083351  124.36900330    0.05000000    0.03000000
   19.75416756  123.01799774    0.05000000    0.03000000
   19.75749969  130.07400513    0.05000000    0.03000000
   19.76055527  127.03399658    0.05000000    0.03000000
   19.76388931  131.05799866    0.05000000    0.03000000
   19.76722145  128.50500488    0.05000000    0.03000000
   19.77305603  128.50500488    0.05000000    0.03000000
   19.77722168  126.95099640    0.05000000    0.03000000
   19.78027725  126.15899658    0.05000000    0.03000000
   19.78361130  128.01699829    0.05000000    0.03000000
   19.78694344  123.94599915    0.05000000    0.03000000
   19.78999901  125.87400055    0.05000000    0.03000000
   19.79333305  126.78299713    0.05000000    0.03000000
   19.79638863  124.27500153    0.05000000    0.03000000
   19.79972076  123.76499939    0.05000000    0.03000000
   19.80305481  125.04599762    0.05000000    0.03000000
   19.80611038  126.82599640    0.05000000    0.03000000
   19.80944443  122.60199738    0.05000000    0.03000000
   19.81027794  119.27899933    0.05000000    0.03000000
   19.81583214  119.27899933    0.05000000    0.03000000
   19.82000160  124.28600311    0.05000000    0.03000000
   19.82333374  124.88200378    0.05000000    0.03000000
   19.82638931  120.94799805    0.05000000    0.03000000
   19.82972336  122.38099670    0.05000000    0.03000000
   19.83305550  125.28700256    0.05000000    0.03000000
   19.83611107  125.27700043    0.05000000    0.03000000
   19.83944511  127.15399933    0.05000000    0.03000000
   19.84277916  138.64399719    0.05000000    0.03000000
   19.84361267  127.95200348    0.05000000    0.03000000
   19.84611130  121.58799744    0.05000000    0.03000000
   19.84944534  121.90899658    0.05000000    0.03000000
   19.85277748  132.20199585    0.05000000    0.03000000
   19.85861206  132.20199585    0.05000000    0.03000000
   19.86277771  127.47100067    0.05000000    0.03000000
   19.86611176  123.46600342    0.05000000    0.03000000
   19.86916733  127.35700226    0.05000000    0.03000000
   19.87249947  123.62300110    0.05000000    0.03000000
   19.87583351  127.44499969    0.05000000    0.03000000
   19.87694550  133.19599915    0.05000000    0.03000000
   19.87916756  127.03600311    0.05000000    0.03000000
   19.88249969  129.72999573    0.05000000    0.03000000
   19.88583374  129.20500183    0.05000000    0.03000000
   19.88888931  120.49600220    0.05000000    0.03000000
   19.89222145  127.39700317    0.05000000    0.03000000
   19.89527702  124.89099884    0.05000000    0.03000000
   19.90166664  124.89099884    0.05000000    0.03000000
   19.90583229  139.91900635    0.05000000    0.03000000
   19.90888786  129.24400330    0.05000000    0.03000000
   19.91027832  124.58899689    0.05000000    0.03000000
   19.91250038  127.69599915    0.05000000    0.03000000
   19.91583252  131.83000183    0.05000000    0.03000000
   19.91916656  132.98899841    0.05000000    0.03000000
   19.92222214  128.04299927    0.05000000    0.03000000
   19.92555428  137.23500061    0.05000000    0.03000000
   19.92888832  126.65200043    0.05000000    0.03000000
   19.93194389  129.69000244    0.05000000    0.03000000
   19.93527603  129.96000671    0.05000000    0.03000000
   19.93861008  127.02999878    0.05000000    0.03000000
   19.94444275  127.02999878    0.05000000    0.03000000
   19.94861031  127.32900238    0.05000000    0.03000000
   19.95166779  130.48500061    0.05000000    0.03000000
   19.95499992  125.33899689    0.05000000    0.03000000
   19.95833397  132.31900024    0.05000000    0.03000000
   19.96138954  126.99199677    0.05000000    0.03000000
   19.96472359  130.22700500    0.05000000    0.03000000
   19.96777916  139.16999817    0.05000000    0.03000000
   19.97111130  135.14599609    0.05000000    0.03000000
   19.97444534  135.23699951    0.05000000    0.03000000
   19.97694588  130.21600342    0.05000000    0.03000000
   19.97777748  126.76100159    0.05000000    0.03000000
   19.98111153  133.56599426    0.05000000    0.03000000
   19.98722267  133.56599426    0.05000000    0.03000000
   19.99138832  141.66799927    0.05000000    0.03000000
   19.99472237  135.74699402    0.05000000    0.03000000
   19.99777794  131.55799866    0.05000000    0.03000000
   20.00111198  129.77699280    0.05000000    0.03000000
   20.00444412  135.14100647    0.05000000    0.03000000
   20.00749969  132.36900330    0.05000000    0.03000000
   20.01027870  131.24499512    0.05000000    0.03000000
   20.01111031  128.21400452    0.05000000    0.03000000
   20.01444435  125.04900360    0.05000000    0.03000000
   20.01749992  133.64900208    0.05000000    0.03000000
   20.02083397  132.48899841    0.05000000    0.03000000
   20.02416611  131.30000305    0.05000000    0.03000000
   20.03000069  131.30000305    0.05000000    0.03000000
   20.03416634  132.25100708    0.05000000    0.03000000
   20.03750038  134.10899353    0.05000000    0.03000000
   20.04055595  139.48899841    0.05000000    0.03000000
   20.04361153  147.88900757    0.05000000    0.03000000
   20.04416656  139.72700500    0.05000000    0.03000000
   20.04749870  134.74499512    0.05000000    0.03000000
   20.05055428  145.76899719    0.05000000    0.03000000
   20.05388832  142.11999512    0.05000000    0.03000000
   20.05722237  133.57099915    0.05000000    0.03000000
   20.06027794  140.09800720    0.05000000    0.03000000
   20.06361008  141.76100159    0.05000000    0.03000000
   20.06694603  137.72799683    0.05000000    0.03000000
   20.07305717  137.72799683    0.05000000    0.03000000
   20.07694626  137.54200745    0.05000000    0.03000000
   20.08027840  137.90199280    0.05000000    0.03000000
   20.08361244  130.18299866    0.05000000    0.03000000
   20.08666801  130.18600464    0.05000000    0.03000000
   20.09000015  122.14900208    0.05000000    0.03000000
   20.09333420  131.10299683    0.05000000    0.03000000
   20.09638977  120.98799896    0.05000000    0.03000000
   20.09972191  127.32700348    0.05000000    0.03000000
   20.10277748  129.44400024    0.05000000    0.03000000
   20.10611153  126.68399811    0.05000000    0.03000000
   20.10944557  137.14599609    0.05000000    0.03000000
   20.11027908  132.18699646    0.05000000    0.03000000
   20.11583328  132.18699646    0.05000000    0.03000000
   20.12000084  130.13800049    0.05000000    0.03000000
   20.12305641  134.28999329    0.05000000    0.03000000
   20.12666702  131.94700623    0.05000000    0.03000000
   20.14388847  126.68800354    0.05000000    0.03000000
   20.14666748  126.51699829    0.05000000    0.03000000
   20.14972115  132.78900146    0.05000000    0.03000000
   20.15305519  129.68099976    0.05000000    0.03000000
   20.15888786  129.68099976    0.05000000    0.03000000
   20.16305542  136.44799805    0.05000000    0.03000000
   20.16611099  128.16400146    0.05000000    0.03000000
   20.16944313  131.45899963    0.05000000    0.03000000
   20.17249870  132.38999939    0.05000000    0.03000000
   20.17583275  129.10299683    0.05000000    0.03000000
   20.17722130  125.76399994    0.05000000    0.03000000
   20.17972183  125.97499847    0.05000000    0.03000000
   20.18277740  134.98399353    0.05000000    0.03000000
   20.18610954  132.68899536    0.05000000    0.03000000
   20.18944359  128.55900574    0.05000000    0.03000000
   20.19249916  131.29499817    0.05000000    0.03000000
   20.19583321  131.51100159    0.05000000    0.03000000
   20.20166779  131.51100159    0.05000000    0.03000000
   20.20583344  127.99600220    0.05000000    0.03000000
   20.20888901  130.27699280    0.05000000    0.03000000
   20.21055603  131.40199280    0.05000000    0.03000000
   20.21277809  124.52700043    0.05000000    0.03000000
   20.21583366  138.28399658    0.05000000    0.03000000
   20.21916771  135.79600525    0.05000000    0.03000000
   20.22305679  129.31700134    0.00000000    0.00000000
   20.22694588  133.86900330    0.00000000    0.00000000
   20.23055649  135.17500305    0.00000000    0.00000000
   20.23444557  131.56900024    0.00000000    0.00000000
   20.23833275  129.75399780    0.00000000    0.00000000
   20.24500084  129.75399780    0.00000000    0.00000000
   20.24972153  130.14399719    0.00000000    0.00000000
   20.25361061  133.77699280    0.00000000    0.00000000
   20.25749969  133.14399719    0.00000000    0.00000000
   20.26138878  128.77900696    0.00000000    0.00000000
   20.26527786  124.55999756    0.00000000    0.00000000
   20.26861000  127.51999664    0.05000000    0.03000000
   20.27166557  118.22599792    0.05000000    0.03000000
   20.27499962  119.37500000    0.05000000    0.03000000
   20.27722168  124.31999969    0.05000000    0.03000000
   20.27861023  122.22100067    0.05000000    0.03000000
   20.28166580  121.76799774    0.05000000    0.03000000
   20.28722191  121.76799774    0.05000000    0.03000000
   20.29138756  128.34599304    0.05000000    0.03000000
   20.29472160  124.32800293    0.05000000    0.03000000
   20.29777718  119.97499847    0.05000000    0.03000000
   20.30111122  118.92700195    0.05000000    0.03000000
   20.30444336  118.33200073    0.05000000    0.03000000
   20.30749893  120.73799896    0.05000000    0.03000000
   20.31055450  122.79000092    0.05000000    0.03000000
   20.31138802  122.86399841    0.05000000    0.03000000
   20.31444359  125.73200226    0.05000000    0.03000000
   20.31777954  123.71199799    0.05000000    0.03000000
   20.32083511  118.63200378    0.05000000    0.03000000
   20.32416725  119.75700378    0.05000000    0.03000000
   20.33027840  119.75700378    0.05000000    0.03000000
   20.33416748  128.67399597    0.05000000    0.03000000
   20.33750153  126.20500183    0.05000000    0.03000000
   20.34083366  130.37699890    0.05000000    0.03000000
   20.34388924  131.23599243    0.05000000    0.03000000
   20.34444427  137.12500000    0.05000000    0.03000000
   20.34749985  132.16200256    0.05000000    0.03000000
   20.35083389  137.56399536    0.05000000    0.03000000
   20.35416794  138.27699280    0.05000000    0.03000000
   20.35722351  137.07800293    0.05000000    0.03000000
   20.36055565  143.31900024    0.05000000    0.03000000
   20.36388969  130.47999573    0.05000000    0.03000000
   20.36694527  139.87899780    0.05000000    0.03000000
   20.37305641  139.87899780    0.05000000    0.03000000
   20.37722206  133.19200134    0.05000000    0.03000000
   20.37777710  126.30899811    0.05000000    0.03000000
   20.38083267  135.83799744    0.05000000    0.03000000
   20.38416672  126.05899811    0.05000000    0.03000000
   20.38722229  131.99699402    0.05000000    0.03000000
   20.39055634  137.94700623    0.05000000    0.03000000
   20.39388847  124.84300232    0.05000000    0.03000000
   20.39694405  149.11700439    0.05000000    0.03000000
   20.40027809  127.32199860    0.05000000    0.03000000
   20.40361023  136.47000122    0.05000000    0.03000000
   20.40666580  133.00900269    0.05000000    0.03000000
   20.40999985  133.37199402    0.05000000    0.03000000
   20.41110992  133.80700684    0.05000000    0.03000000
   20.41583252  133.80700684    0.05000000    0.03000000
   20.42000008  135.18600464    0.05000000    0.03000000
   20.42333221  132.09399414    0.05000000    0.03000000
   20.42638779  128.50500488    0.05000000    0.03000000
   20.42972183  136.39799500    0.05000000    0.03000000
   20.43305397  125.58599854    0.05000000    0.03000000
   20.43610954  135.05599976    0.05000000    0.03000000
   20.43944359  129.42599487    0.05000000    0.03000000
   20.44249916  134.77000427    0.05000000    0.03000000
   20.44444275  145.32800293    0.05000000    0.03000000
   20.44610977  132.43600464    0.05000000    0.03000000
   20.44944382  140.63900757    0.05000000    0.03000000
   20.45277786  132.58399963    0.05000000    0.03000000
   20.45861244  132.58399963    0.05000000    0.03000000
   20.46277809  135.42500305    0.05000000    0.03000000
   20.46611214  126.84899902    0.05000000    0.03000000
   20.46916771  134.08500671    0.05000000    0.03000000
   20.47249985  131.66600037    0.05000000    0.03000000
   20.47583389  133.16200256    0.05000000    0.03000000
   20.47777748  132.34599304    0.05000000    0.03000000
   20.47916794  131.72099304    0.05000000    0.03000000
   20.48250008  131.92399597    0.05000000    0.03000000
   20.48555565  125.16000366    0.05000000    0.03000000
   20.48888969  127.62100220    0.05000000    0.03000000
   20.49222183  130.14700317    0.05000000    0.03000000
   20.49527740  129.67599487    0.05000000    0.03000000
   20.50166702  129.67599487    0.05000000    0.03000000
   20.50555611  123.94799805    0.05000000    0.03000000
   20.50888824  119.23300171    0.05000000    0.03000000
   20.51111031  129.59899902    0.05000000    0.03000000
   20.51250076  125.84400177    0.05000000    0.03000000
   20.51583290  131.79400635    0.05000000    0.03000000
   20.51888847  125.09400177    0.05000000    0.03000000
   20.52222252  132.99299622    0.05000000    0.03000000
   20.52555466  129.44599915    0.05000000    0.03000000
   20.52861023  127.04199982    0.05000000    0.03000000
   20.53194427  128.84300232    0.05000000    0.03000000
   20.53527641  129.89500427    0.05000000    0.03000000
   20.53833199  128.04800415    0.05000000    0.03000000
   20.54444313  128.04800415    0.05000000    0.03000000
   20.54861069  132.58000183    0.05000000    0.03000000
   20.55166626  128.05200195    0.05000000    0.03000000
   20.55499840  124.86199951    0.05000000    0.03000000
   20.55833244  125.26000214    0.05000000    0.03000000
   20.56138802  130.53399658    0.05000000    0.03000000
   20.56472206  125.18900299    0.05000000    0.03000000
   20.56777954  128.06500244    0.05000000    0.03000000
   20.57111168  133.32099915    0.05000000    0.03000000
   20.57444572  126.10199738    0.05000000    0.03000000
   20.57750130  128.74499512    0.05000000    0.03000000
   20.57805634  132.06500244    0.05000000    0.03000000
   20.58139038  127.83300018    0.05000000    0.03000000
   20.58722305  127.83300018    0.05000000    0.03000000
   20.59138870  130.39399719    0.05000000    0.03000000
   20.59472275  127.21700287    0.05000000    0.03000000
   20.59777832  131.60299683    0.05000000    0.03000000
   20.60111237  125.03800201    0.05000000    0.03000000
   20.60416794  128.78500366    0.05000000    0.03000000
   20.60750008  127.20600128    0.05000000    0.03000000
   20.61083412  130.30900574    0.05000000    0.03000000
   20.61138916  122.55200195    0.05000000    0.03000000
   20.61444473  124.89700317    0.05000000    0.03000000
   20.61750031  117.68099976    0.05000000    0.03000000
   20.62083435  129.08399963    0.05000000    0.03000000
   20.62416649  132.92599487    0.05000000    0.03000000
   20.63000107  132.92599487    0.05000000    0.03000000
   20.63416672  128.51100159    0.05000000    0.03000000
   20.63750076  136.84800720    0.05000000    0.03000000
   20.64083290  131.44000244    0.05000000    0.03000000
   20.64388847  128.77999878    0.05000000    0.03000000
   20.64472198  125.41999817    0.05000000    0.03000000
   20.64749908  127.95999908    0.05000000    0.03000000
   20.65055466  137.39100647    0.05000000    0.03000000
   20.65388870  129.88699341    0.05000000    0.03000000
   20.65722275  133.58500671    0.05000000    0.03000000
   20.66027832  142.79600525    0.05000000    0.03000000
   20.66361046  132.78500366    0.05000000    0.03000000
   20.66694450  128.74200439    0.05000000    0.03000000
