    HOUR (UT)   FLARE FACTOR    SKY TESTER    SUN TESTER
   12.02027798   -1.00000000   -1.00000000   -1.00000000
   12.06055546  128.16900635    0.13000000    0.23000000
   12.06361103  129.09899902    0.13000000    0.23000000
   12.06694412  130.44700623    0.15000001    0.23000000
   12.07027817  132.30099487    0.15000001    0.23000000
   12.07333374  134.84399414    0.15000001    0.25000000
   12.07666683  121.48600006    0.15000001    0.25000000
   12.08083344  121.48600006    4.90999985    2.15000010
   12.08500004  124.41100311    4.90999985    2.15000010
   12.08805561  126.69499969    4.90999985    2.13000011
   12.09138870  124.66699982    1.13000000    2.11999989
   12.09361076  125.34200287    1.13000000    2.11999989
   12.09499931  125.55500031    1.11000001    2.09999990
   12.09833336  126.60199738    1.11000001    2.11999989
   12.10138893  125.95800018    1.11000001    2.11999989
   12.10472298  132.90800476    1.13000000    2.11999989
   12.10805607  136.85800171    1.11000001    2.11999989
   12.11111164  138.24299622    1.11000001    2.11999989
   12.11444473  141.19900513    1.13000000    2.11999989
   12.11750031  140.77099609    1.13000000    2.13000011
   12.12361145  140.77099609    1.11000001    2.13000011
   12.12777805  122.07900238    1.11000001    2.13000011
   12.13083363  124.40200043    1.09000003    2.13000011
   12.13416672  129.31500244    1.09000003    2.13000011
   12.13749981  119.05699921    1.09000003    2.13000011
   12.14111137  126.75900269    1.09000003    2.13000011
   12.14444447  126.94200134    1.09000003    2.13000011
   12.14750004  128.55400085    1.09000003    2.13000011
   12.15083313  129.52699280    1.09000003    2.13000011
   12.15388870  124.97000122    1.07000005    2.15000010
   12.15722179  142.03100586    1.07000005    2.15000010
   12.16027737  144.93200684    1.07000005    2.15000010
   12.16083336  150.40199280    1.07000005    2.15000010
   12.16638851  150.40199280    1.07000005    2.15000010
   12.17055607  129.62500000    1.05999994    2.15000010
   12.17388916  143.76699829    1.05999994    2.17000008
   12.17694473  135.57299805    1.05999994    2.15000010
   12.18027782  120.28099823    1.03999996    2.15000010
   12.18361092  125.61100006    1.03999996    2.17000008
   12.18666649  126.51699829    1.03999996    2.17000008
   12.19000053  123.22499847    1.03999996    2.17000008
   12.19305515  131.18099976    1.03999996    2.17000008
   12.19361115  134.00900269    1.03999996    2.17000008
   12.19666672  119.79599762    1.03999996    2.17000008
   12.19999981  120.44300079    1.03999996    2.17000008
   12.20305538  117.37300110    1.03999996    2.17000008
   12.20916653  117.37300110    1.03999996    2.17000008
   12.21333313  125.36599731    1.03999996    2.19000006
   12.21666622  130.68200684    1.03999996    2.19000006
   12.21999931  125.38400269    1.03999996    2.19000006
   12.22305489  126.99500275    1.03999996    2.19000006
   12.22638798  119.73500061    1.03999996    2.19000006
   12.22694397  128.66499329    1.03999996    2.19000006
   12.22999954  128.52299500    1.03999996    2.19000006
   12.23333359  124.93900299    1.01999998    2.19000006
   12.23638916  126.16300201    1.01999998    2.21000004
   12.23972225  133.84199524    1.01999998    2.19000006
   12.24305534  123.57499695    1.01999998    2.19000006
   12.24611092  129.66400146    1.01999998    2.19000006
   12.25222206  129.66400146    1.00000000    2.19000006
   12.25638866  118.91699982    1.00000000    2.21000004
   12.25944424  117.92400360    1.01999998    2.21000004
   12.26027775  119.18900299    1.01999998    2.21000004
   12.26305580  119.58599854    1.00000000    2.21000004
   12.26638889  122.46399689    1.00000000    2.19000006
   12.26944447  120.19799805    1.00000000    2.19000006
   12.27277756  114.77899933    1.00000000    2.21000004
   12.27611065  114.43499756    1.00000000    2.21000004
   12.27916622  120.92900085    1.00000000    2.21000004
   12.28249931  129.48599243    1.00000000    2.23000002
   12.28583336  129.34300232    1.00000000    2.23000002
   12.28888893  122.95500183    1.00000000    2.21000004
   12.29500008  122.95500183    1.00000000    2.23000002
   12.29916668  135.65199280    0.98000002    2.23000002
   12.30249977  137.50500488    0.98000002    2.23000002
   12.30583382  121.09200287    1.00000000    2.23000002
   12.30888939  131.88099670    1.00000000    2.23000002
   12.31222248  118.94999695    0.98000002    2.23000002
   12.31527805  131.73599243    0.98000002    2.23000002
   12.31861115  123.89800262    0.95999998    2.25000000
   12.32194424  127.12200165    0.98000002    2.25000000
   12.32499981  122.20800018    0.95999998    2.23000002
   12.32694435  121.80300140    0.95999998    2.23000002
   12.32861137  116.83300018    0.95999998    2.23000002
   12.33194447  123.16999817    0.95999998    2.23000002
   12.33777714  123.16999817    0.94000000    2.23000002
   12.34194374  117.45899963    0.94000000    2.23000002
   12.34555531  125.83000183    0.94000000    2.25000000
   12.34861088  113.25399780    0.94000000    2.25000000
   12.35194492  128.21899414    0.94000000    2.25000000
   12.35527802  109.44999695    0.94000000    2.25000000
   12.35833359  114.85700226    0.92000002    2.25000000
   12.36055565  115.18000031    0.92000002    2.25000000
   12.36194515  111.69799805    0.92000002    2.25000000
   12.36527824  121.10299683    0.92000002    2.25000000
   12.36833382  116.04199982    0.94000000    2.25000000
   12.37166691  115.46499634    0.94000000    2.25000000
   12.37500000  119.02899933    0.94000000    2.25000000
   12.38055611  119.02899933    0.94000000    2.25000000
   12.38472176  120.18299866    0.92000002    2.26999998
   12.38805580  118.39600372    0.92000002    2.26999998
   12.39111137  118.34799957    0.92000002    2.26999998
   12.39388847  128.92900085    0.94000000    2.26999998
   12.39499950  113.28099823    0.94000000    2.26999998
   12.39805508  118.95200348    0.94000000    2.26999998
   12.40138817  117.07299805    0.92000002    2.26999998
   12.40472221  123.76699829    0.92000002    2.26999998
   12.40777779  120.64900208    0.92000002    2.26999998
   12.41111088  116.10900116    0.92000002    2.26999998
   12.41416645  112.63700104    0.92000002    2.26999998
   12.41750050  117.07399750    0.89999998    2.26999998
   12.42361164  117.07399750    0.89999998    2.28999996
   12.42750072  116.22599792    0.89999998    2.28999996
   12.43083382  121.06800079    0.89999998    2.28999996
   12.43416691  114.86199951    0.89999998    2.28999996
   12.43722248  112.74800110    0.89999998    2.28999996
   12.44055557  111.62799835    0.89999998    2.28999996
   12.44388866  117.50599670    0.88000000    2.28999996
   12.44694424  116.36599731    0.88000000    2.28999996
   12.45027733  122.37300110    0.88000000    2.28999996
   12.45333290  110.85600281    0.88000000    2.28999996
   12.45666695  118.06900024    0.88000000    2.30999994
   12.46000004  122.05999756    0.88000000    2.30999994
   12.46055508  110.96800232    0.88000000    2.30999994
   12.46638870  110.96800232    0.88000000    2.30999994
   12.47055531  125.75299835    0.86000001    2.28999996
   12.47388840  118.34600067    0.86000001    2.28999996
   12.47694397  114.08799744    0.86000001    2.30999994
   12.48027706  118.70500183    0.86000001    2.30999994
   12.48333359  120.56700134    0.83999997    2.30999994
   12.48666668  114.03299713    0.83999997    2.30999994
   12.49000072  118.26499939    0.83999997    2.30999994
   12.49305534  121.41400146    0.83999997    2.30999994
   12.49388885  129.58399963    0.81999999    2.30999994
   12.49666691  125.36799622    0.81999999    2.30999994
   12.50000000  119.99199677    0.81999999    2.30999994
   12.50305557  117.13400269    0.81999999    2.30999994
   12.50916672  117.13400269    0.81999999    2.30999994
   12.51333332  114.34200287    0.81999999    2.32999992
   12.51666641  124.80000305    0.81999999    2.32999992
   12.51972198  111.80899811    0.81999999    2.32999992
   12.52305508  114.61399841    0.81999999    2.32999992
   12.52638817  129.95399475    0.81999999    2.32999992
   12.52722168  116.37400055    0.83999997    2.32999992
   12.52972221  118.71499634    0.83999997    2.32999992
   12.53305531  122.11399841    0.83999997    2.32999992
   12.53638935  122.27400208    0.83999997    2.32999992
   12.53944492  108.39399719    0.83999997    2.32999992
   12.54277802  132.27000427    0.81999999    2.32999992
   12.54583359  115.06600189    0.81999999    2.32999992
   12.55194473  115.06600189    0.83999997    2.32999992
   12.55611134  129.52999878    0.81999999    2.32999992
   12.55944443  114.78700256    0.81999999    2.34999990
   12.56055546  114.69999695    0.81999999    2.34999990
   12.56305599  121.31900024    0.81999999    2.34999990
   12.56638908  107.62699890    0.81999999    2.34999990
   12.56972218  120.06099701    0.81999999    2.34999990
   12.57277775  106.95700073    0.80000001    2.34999990
   12.57611084  108.81600189    0.80000001    2.34999990
   12.57916641  117.86599731    0.80000001    2.34999990
   12.58249950  120.79799652    0.80000001    2.34999990
   12.58583260  119.21900177    0.80000001    2.34999990
   12.58888817  117.83999634    0.80000001    2.34999990
   12.59499931  117.83999634    0.80000001    2.34999990
   12.59888840  123.39199829    0.80000001    2.36999989
   12.60222244  111.26000214    0.80000001    2.34999990
   12.60555553  116.86799622    0.79000002    2.34999990
   12.60888958  114.27899933    0.79000002    2.34999990
   12.61222267  117.18199921    0.79000002    2.34999990
   12.61527824  114.64600372    0.79000002    2.34999990
   12.61861134  117.55999756    0.79000002    2.34999990
   12.62194443  119.20099640    0.79000002    2.34999990
   12.62500000  118.56700134    0.79000002    2.36999989
   12.62722206  119.89299774    0.79000002    2.36999989
   12.62861156  111.78800201    0.76999998    2.36999989
   12.63194466  107.92400360    0.76999998    2.36999989
   12.63777733  107.92400360    0.76999998    2.36999989
   12.64194393  112.03900146    0.76999998    2.36999989
   12.64499950  116.29799652    0.76999998    2.36999989
   12.64833355  102.83100128    0.76999998    2.39000010
   12.65166664  106.33100128    0.76999998    2.36999989
   12.65472221  108.16200256    0.76999998    2.36999989
   12.65805531  105.72200012    0.76999998    2.36999989
   12.66055489  113.61199951    0.76999998    2.39000010
   12.66166592  105.82900238    0.76999998    2.39000010
   12.66499996  117.62400055    0.76999998    2.39000010
   12.66833401  109.06700134    0.76999998    2.36999989
   12.67138958  114.68099976    0.76999998    2.36999989
   12.67472267  112.76499939    0.76999998    2.36999989
   12.68055630  112.76499939    0.75000000    2.39000010
   12.68472195  114.58200073    0.76999998    2.39000010
   12.68805599  118.37100220    0.75000000    2.39000010
   12.69111156  113.43499756    0.75000000    2.39000010
   12.69388866  114.79399872    0.75000000    2.39000010
   12.69472218  111.95899963    0.75000000    2.39000010
   12.69805527  110.30599976    0.75000000    2.39000010
   12.70138836  104.82800293    0.75000000    2.39000010
   12.70444393  115.37699890    0.75000000    2.39000010
   12.70777798  111.91000366    0.75000000    2.39000010
   12.71111107  110.58300018    0.75000000    2.39000010
   12.71416664  125.58499908    0.75000000    2.39000010
   12.71749973  123.96099854    0.73000002    2.39000010
   12.72333336  123.96099854    0.73000002    2.39000010
   12.72749996  110.78700256    0.73000002    2.39000010
   12.73083305  114.73300171    0.73000002    2.39000010
   12.73416710  114.39099884    0.73000002    2.39000010
   12.73722267  111.02100372    0.73000002    2.39000010
   12.74055576  111.61199951    0.73000002    2.39000010
   12.74361134  112.57599640    0.75000000    2.39000010
   12.74694443  109.32199860    0.73000002    2.39000010
   12.75027752  112.32900238    0.73000002    2.40000010
   12.75333309  111.33300018    0.73000002    2.40000010
   12.75666714  109.94899750    0.73000002    2.40000010
   12.76000023  107.66100311    0.73000002    2.40000010
   12.76055527  117.39099884    0.73000002    2.40000010
   12.76638889  117.39099884    0.73000002    2.40000010
   12.77027798  115.54799652    0.73000002    2.40000010
   12.77361107  110.58999634    0.70999998    2.40000010
   12.77694416  121.94699860    0.70999998    2.40000010
   12.77999973  113.00700378    0.70999998    2.40000010
   12.78333378  116.18099976    0.70999998    2.40000010
   12.78666687  113.88300323    0.70999998    2.40000010
   12.78972244  104.97499847    0.70999998    2.40000010
   12.79305553  116.65200043    0.70999998    2.40000010
   12.79388905  114.76499939    0.70999998    2.40000010
   12.79638958  112.40499878    0.70999998    2.40000010
   12.79972267  114.58100128    0.70999998    2.42000008
   12.80305576  115.44799805    0.70999998    2.42000008
   12.80916691  115.44799805    0.73000002    2.42000008
   12.81333351  111.68599701    0.70999998    2.42000008
   12.81638908  109.02500153    0.70999998    2.42000008
   12.81972218  114.57900238    0.70999998    2.42000008
   12.82305527  100.05300140    0.70999998    2.42000008
   12.82638836  106.37100220    0.70999998    2.42000008
   12.82722187  109.01100159    0.69000000    2.42000008
   12.82972240  106.37300110    0.69000000    2.42000008
   12.83305550  106.09899902    0.69000000    2.42000008
   12.83638859  104.30100250    0.69000000    2.44000006
   12.83944416  105.74500275    0.69000000    2.42000008
   12.84277725  109.83300018    0.69000000    2.44000006
   12.84611034  113.69400024    0.69000000    2.44000006
   12.85194492  113.69400024    0.67000002    2.42000008
   12.85611153  103.52500153    0.69000000    2.42000008
   12.85944462  108.19200134    0.67000002    2.42000008
   12.86055565  114.27300262    0.67000002    2.42000008
   12.86277771   99.59829712    0.69000000    2.42000008
   12.86611176  111.90399933    0.67000002    2.42000008
   12.86944485  106.75800323    0.67000002    2.42000008
   12.87250042  112.87699890    0.69000000    2.42000008
   12.87583351  105.29199982    0.69000000    2.42000008
   12.87916660  121.95500183    0.69000000    2.42000008
   12.88222218  102.80500031    0.70999998    2.44000006
   12.88555527  117.82399750    0.69000000    2.42000008
   12.88888836  107.35199738    0.69000000    2.44000006
   12.89472198  107.35199738    0.69000000    2.44000006
   12.89888859  115.90699768    0.67000002    2.44000006
   12.90222168   99.66999817    0.67000002    2.44000006
   12.90555477  115.36900330    0.67000002    2.44000006
   12.90888882  103.15599823    0.64999998    2.44000006
   12.91222191  106.17600250    0.64999998    2.44000006
   12.91527748   98.61190033    0.67000002    2.44000006
   12.91861153  113.96099854    0.64999998    2.44000006
   12.92166710  109.71499634    0.64999998    2.44000006
   12.92500019  101.91200256    0.64999998    2.46000004
   12.92722225  100.42299652    0.63000000    2.44000006
   12.92888927   95.87750244    0.63000000    2.44000006
   12.93222237  104.21700287    0.63000000    2.44000006
   12.93777752  104.21700287    0.63000000    2.44000006
   12.94166660  106.19300079    0.63000000    2.46000004
   12.94499969  100.31099701    0.63000000    2.46000004
   12.94833374  107.94599915    0.63000000    2.46000004
   12.95138836   97.21140289    0.63000000    2.46000004
   12.95472240   94.92639923    0.63000000    2.46000004
   12.95805550  109.50900269    0.63000000    2.46000004
   12.96055508   99.32089996    0.64999998    2.46000004
   12.96138859  101.78299713    0.64999998    2.46000004
   12.96472168   97.43019867    0.64999998    2.46000004
   12.96805477  108.02300262    0.64999998    2.46000004
   12.97111034  102.50000000    0.64999998    2.46000004
   12.97444439  100.13700104    0.64999998    2.46000004
   12.98055553  100.13700104    0.64999998    2.46000004
   12.98472214  108.58100128    0.64999998    2.46000004
   12.98777771   96.20369720    0.64999998    2.46000004
   12.99111176  104.45700073    0.63000000    2.46000004
   12.99388885  103.80899811    0.63000000    2.46000004
   12.99472237  108.25800323    0.63000000    2.46000004
   12.99805546  100.95999908    0.63000000    2.46000004
   13.00138855  106.37100220    0.61000001    2.46000004
   13.00444412  100.10600281    0.61000001    2.46000004
   13.00777817   96.86270142    0.61000001    2.46000004
   13.01111126   96.31970215    0.58999997    2.48000002
   13.01416683   97.80000305    0.61000001    2.46000004
   13.01749992   93.82129669    0.61000001    2.46000004
   13.02333355   93.82129669    0.61000001    2.48000002
   13.02750015   99.63760376    0.61000001    2.46000004
   13.03083324   97.11080170    0.61000001    2.46000004
   13.03388977   97.58280182    0.61000001    2.48000002
   13.03722286  101.06400299    0.63000000    2.46000004
   13.04027843   94.12020111    0.61000001    2.48000002
   13.04361153  103.80599976    0.61000001    2.48000002
   13.04694462   99.36250305    0.63000000    2.48000002
   13.05000019  105.02200317    0.61000001    2.46000004
   13.05333328  100.24199677    0.61000001    2.46000004
   13.05666733  102.61900330    0.63000000    2.48000002
   13.05972195   98.35430145    0.61000001    2.48000002
   13.06055546  100.84700012    0.61000001    2.48000002
   13.08138847  100.84700012    0.61000001    2.48000002
   13.08555508   95.53990173    0.63000000    2.48000002
   13.08861065  106.44699860    0.61000001    2.48000002
   13.09194374   97.79889679    0.63000000    2.48000002
   13.09388828   99.74389648    0.63000000    2.50000000
   13.09555531   96.96640015    0.61000001    2.48000002
   13.09861088  101.13200378    0.61000001    2.48000002
   13.10194492   98.36769867    0.61000001    2.48000002
   13.10527802  104.54900360    0.61000001    2.48000002
   13.10833359  100.04900360    0.61000001    2.48000002
   13.11166668  108.81600189    0.61000001    2.50000000
   13.11500072  100.29000092    0.61000001    2.50000000
   13.11805534  101.72399902    0.61000001    2.48000002
   13.12416649  101.72399902    0.58999997    2.50000000
   13.12833309   96.74939728    0.58999997    2.48000002
   13.13138866  100.73200226    0.61000001    2.50000000
   13.13472176   94.95659637    0.58999997    2.50000000
   13.13777733   95.32260132    0.61000001    2.48000002
   13.14111137  100.87100220    0.58999997    2.50000000
   13.14444447   99.45999908    0.58999997    2.50000000
   13.14750004  108.41699982    0.58999997    2.50000000
   13.15083313  102.95999908    0.58999997    2.50000000
   13.15416622   99.74130249    0.58999997    2.50000000
   13.15722179  102.47699738    0.58999997    2.50000000
   13.16055489  104.11699677    0.58999997    2.50000000
   13.16111088   96.83869934    0.58999997    2.50000000
   13.16694450   96.83869934    0.58999997    2.50000000
   13.17111111   98.62680054    0.58999997    2.50000000
   13.17416668   93.81680298    0.58999997    2.50000000
   13.17750072  109.70700073    0.58999997    2.50000000
   13.18083382  106.41100311    0.58999997    2.51999998
   13.18388939  104.70400238    0.58999997    2.51999998
   13.18722248   95.88500214    0.61000001    2.50000000
   13.19055557  103.49500275    0.61000001    2.50000000
   13.19361115  106.32099915    0.58999997    2.51999998
   13.19444466  103.52600098    0.58999997    2.51999998
   13.19750023  103.14800262    0.58999997    2.51999998
   13.20055580   97.92389679    0.58999997    2.50000000
   13.20388889   96.34909821    0.58999997    2.50000000
   13.20972157   96.34909821    0.56999999    2.50000000
   13.21388912  115.13300323    0.58999997    2.51999998
   13.21722221  103.99800110    0.56999999    2.51999998
   13.22055531   99.35590363    0.56999999    2.50000000
   13.22361088   96.85620117    0.56999999    2.50000000
   13.22694397   99.29010010    0.56999999    2.51999998
   13.22777748  101.45300293    0.56999999    2.51999998
   13.23083305   99.49749756    0.56999999    2.51999998
   13.23416710  104.50199890    0.56999999    2.51999998
   13.23722267  110.06600189    0.56999999    2.51999998
   13.24055576  100.94599915    0.56999999    2.51999998
   13.24388885  117.52300262    0.56999999    2.51999998
   13.24694443  108.63700104    0.56999999    2.51999998
   13.25249958  108.63700104    0.56999999    2.51999998
   13.25666714  104.66200256    0.56999999    2.50000000
   13.26000023  144.88000488    0.56999999    2.51999998
   13.26111126  152.21200562    0.56999999    2.51999998
   13.26333332   97.21669769    0.56999999    2.51999998
   13.26666641  143.17900085    0.56999999    2.51999998
   13.26999950  139.83799744    0.56999999    2.51999998
   13.27305508  132.88600159    0.56999999    2.51999998
   13.27638817  153.13900757    0.56999999    2.51999998
   13.27972221  140.89799500    0.56999999    2.51999998
   13.28277779  130.51899719    0.56999999    2.51999998
   13.28611183  122.02600098    0.56999999    2.51999998
   13.28916740  118.41400146    0.56999999    2.51999998
   13.29555607  118.41400146    0.55000001    2.51999998
   13.29944515  147.33599854    0.55000001    2.51999998
   13.30277824  118.41600037    0.55000001    2.51999998
   13.30611134  143.94000244    0.55000001    2.51999998
   13.30916691  107.01200104    0.55000001    2.51999998
   13.31250000  111.17700195    0.55000001    2.51999998
   13.31583309   98.59069824    0.55000001    2.53999996
   13.31888866  101.45500183    0.52999997    2.53999996
   13.32222176  113.17900085    0.52999997    2.53999996
   13.32555580  100.13899994    0.52999997    2.53999996
   13.32777786  110.07299805    0.52999997    2.53999996
   13.32916641  100.67900085    0.52999997    2.53999996
   13.33222198  102.10399628    0.55000001    2.53999996
   13.33833313  102.10399628    0.52999997    2.53999996
   13.34249973  106.33599854    0.55000001    2.51999998
   13.34555531  109.10399628    0.55000001    2.53999996
   13.34888840  105.17099762    0.55000001    2.53999996
   13.35222244  103.40399933    0.55000001    2.53999996
   13.35527802  102.27500153    0.55000001    2.53999996
   13.35861111  108.47499847    0.55000001    2.53999996
   13.36111164   99.12740326    0.52999997    2.53999996
   13.36222267  104.33300018    0.52999997    2.53999996
   13.36555576   96.14299774    0.52999997    2.55999994
   13.36861134  103.21700287    0.52999997    2.53999996
   13.37194443  102.11299896    0.52999997    2.53999996
   13.37527752   95.16369629    0.52999997    2.53999996
   13.38111115   95.16369629    0.55000001    2.55999994
   13.38527775  101.84999847    0.55000001    2.53999996
   13.38861084   99.17669678    0.55000001    2.55999994
   13.39166641  105.81300354    0.55000001    2.55999994
   13.39444447   93.94660187    0.55000001    2.55999994
   13.39527798  104.73300171    0.55000001    2.53999996
   13.39861107   96.00140381    0.55000001    2.53999996
   13.40194416  103.13700104    0.55000001    2.53999996
   13.40499973   97.80359650    0.55000001    2.53999996
   13.40833282  104.00499725    0.55000001    2.53999996
   13.41166592  100.36100006    0.55000001    2.53999996
   13.41499996   96.37819672    0.55000001    2.53999996
   13.41805553  102.38999939    0.55000001    2.55999994
   13.42388916  102.38999939    0.55000001    2.55999994
   13.42805576  105.06400299    0.55000001    2.53999996
   13.43138885   98.86260223    0.55000001    2.53999996
   13.43472195  100.93099976    0.56999999    2.55999994
   13.43777752  102.08899689    0.56999999    2.55999994
   13.44111156   99.95189667    0.55000001    2.53999996
   13.44444466   95.50720215    0.55000001    2.53999996
   13.44750023  100.36799622    0.55000001    2.55999994
   13.45083332  105.82199860    0.55000001    2.55999994
   13.45388889   96.92430115    0.55000001    2.55999994
   13.45722198  102.01300049    0.55000001    2.55999994
   13.46055508  100.29399872    0.55000001    2.55999994
   13.46111107   97.75520325    0.55000001    2.55999994
   13.46694374   97.75520325    0.55000001    2.53999996
   13.47111034  106.63200378    0.55000001    2.55999994
   13.47416592  102.90499878    0.55000001    2.55999994
   13.47749996   99.00129700    0.55000001    2.55999994
   13.48055553  103.57900238    0.55000001    2.55999994
   13.48388958  100.06800079    0.55000001    2.55999994
   13.48722267  100.69100189    0.52999997    2.55999994
   13.49027824  105.08599854    0.52999997    2.55999994
   13.49361134  104.93499756    0.52999997    2.55999994
   13.49444485   97.18329620    0.52999997    2.55999994
   13.49722290  102.05500031    0.52999997    2.55999994
   13.50027752  100.21099854    0.55000001    2.55999994
   13.50361156  113.46199799    0.52999997    2.55999994
   13.50972176  113.46199799    0.52999997    2.55999994
   13.51388931  108.19899750    0.52999997    2.55999994
   13.51694393  105.77700043    0.52999997    2.55999994
   13.52027798  100.20600128    0.52999997    2.55999994
   13.52361107  106.77400208    0.52999997    2.55999994
   13.52666664   97.06089783    0.52999997    2.55999994
   13.52777767  105.13800049    0.52999997    2.55999994
   13.53055573   99.13259888    0.52999997    2.55999994
   13.53361130  105.61599731    0.52999997    2.55999994
   13.53694534  102.60199738    0.52999997    2.55999994
   13.54000092   99.18869781    0.52999997    2.55999994
   13.54333401  100.89499664    0.52999997    2.55999994
   13.54666710   97.17890167    0.52999997    2.55999994
   13.55249977   97.17890167    0.52999997    2.55999994
   13.55666733   97.29160309    0.52999997    2.55999994
   13.56000042   99.31549835    0.52999997    2.55999994
   13.56111145  102.08499908    0.52999997    2.55999994
   13.56361103  104.20400238    0.52999997    2.55999994
   13.56666660  100.89800262    0.52999997    2.55999994
   13.56999969  100.01899719    0.52999997    2.55999994
   13.57333374   97.94080353    0.52999997    2.55999994
   13.57638836  100.45600128    0.52999997    2.55999994
   13.57972240   99.62310028    0.52999997    2.55999994
   13.58305550  102.84100342    0.52999997    2.55999994
   13.58611107  103.93199921    0.52999997    2.55999994
   13.58944416  102.64299774    0.52999997    2.55999994
   13.59527779  102.64299774    0.52999997    2.57999992
   13.59944439  103.66799927    0.52999997    2.55999994
   13.60277843  112.98100281    0.55000001    2.55999994
   13.60611153  101.89099884    0.55000001    2.55999994
   13.60916710  102.79699707    0.52999997    2.57999992
   13.61250019  101.65899658    0.52999997    2.55999994
   13.61583328   99.39050293    0.52999997    2.57999992
   13.61888885  103.04799652    0.52999997    2.55999994
   13.62222195  107.46700287    0.52999997    2.55999994
   13.62555599  100.06400299    0.52999997    2.57999992
   13.62777805  100.69400024    0.52999997    2.57999992
   13.62916660   98.11560059    0.52999997    2.57999992
   13.63222218   96.02729797    0.52999997    2.57999992
   13.63833332   96.02729797    0.51999998    2.57999992
   13.64249992  105.84600067    0.51999998    2.57999992
   13.64555550  104.19400024    0.51999998    2.57999992
   13.64888859  106.67600250    0.51999998    2.57999992
   13.65194416  104.91300201    0.51999998    2.57999992
   13.65527725  101.35199738    0.51999998    2.57999992
   13.65861034  101.42500305    0.51999998    2.57999992
   13.66111088  100.91899872    0.51999998    2.57999992
   13.66222191  102.41500092    0.51999998    2.57999992
   13.66555500  103.07299805    0.51999998    2.57999992
   13.66861153  103.67099762    0.52999997    2.57999992
   13.67194462  105.98500061    0.51999998    2.57999992
   13.67500019  102.68900299    0.51999998    2.57999992
   13.68111134  102.68900299    0.51999998    2.57999992
   13.68527794   99.28869629    0.52999997    2.57999992
   13.68833351  104.58699799    0.52999997    2.57999992
   13.69166660  101.05100250    0.51999998    2.57999992
   13.69444466  104.22200012    0.51999998    2.57999992
   13.69527817  109.76200104    0.51999998    2.57999992
   13.69833374   99.22550201    0.51999998    2.59999990
   13.70166683  108.24400330    0.51999998    2.57999992
   13.70499992  100.45800018    0.51999998    2.57999992
   13.70805550  104.26300049    0.51999998    2.57999992
   13.71138859  109.66600037    0.51999998    2.59999990
   13.71444416  107.63600159    0.51999998    2.57999992
   13.71777725  101.78800201    0.51999998    2.57999992
   13.72388840  101.78800201    0.50000000    2.59999990
   13.72805500  110.08699799    0.50000000    2.59999990
   13.73138809  108.36399841    0.51999998    2.59999990
   13.73444462  104.73100281    0.50000000    2.57999992
   13.73777771  107.68599701    0.50000000    2.57999992
   13.74111176  109.40499878    0.50000000    2.57999992
   13.74416733  110.30200195    0.50000000    2.59999990
   13.74750042  105.84999847    0.50000000    2.59999990
   13.75083351  102.54699707    0.51999998    2.59999990
   13.75388908  106.95200348    0.51999998    2.59999990
   13.75722218  108.26300049    0.51999998    2.57999992
   13.76027775  101.29199982    0.51999998    2.59999990
   13.76111126  108.94799805    0.51999998    2.59999990
   13.76666641  108.94799805    0.51999998    2.57999992
   13.77083302  102.09100342    0.51999998    2.59999990
   13.77416611  104.77200317    0.51999998    2.57999992
   13.77722168  103.27100372    0.51999998    2.59999990
   13.78055573  102.50399780    0.51999998    2.59999990
   13.78388977  105.83100128    0.51999998    2.59999990
   13.78694534  113.48400116    0.50000000    2.59999990
   13.79027843  109.50700378    0.51999998    2.59999990
   13.79361153  111.80699921    0.50000000    2.59999990
   13.79444504  126.41400146    0.50000000    2.59999990
   13.79722309  120.95099640    0.51999998    2.59999990
   13.80027771  115.99500275    0.51999998    2.59999990
   13.80361176  119.25499725    0.50000000    2.59999990
   13.80972195  119.25499725    0.50000000    2.59999990
   13.81361103  106.12899780    0.50000000    2.59999990
   13.81694412  105.64900208    0.51999998    2.59999990
   13.82027817  104.36900330    0.51999998    2.59999990
   13.82333374  103.96800232    0.51999998    2.59999990
   13.82666683  102.94000244    0.51999998    2.59999990
   13.82777786   99.92729950    0.51999998    2.59999990
   13.83027744  104.90200043    0.51999998    2.59999990
   13.83333302  104.84799957    0.52999997    2.59999990
   13.83666611  103.49199677    0.51999998    2.61999989
   13.84000015  106.06800079    0.51999998    2.59999990
   13.84305477  110.97000122    0.51999998    2.59999990
   13.84638882  106.21299744    0.51999998    2.59999990
   13.85249996  106.21299744    0.52999997    2.59999990
   13.85666752  102.31999969    0.51999998    2.59999990
   13.85972214  107.37200165    0.51999998    2.59999990
   13.86111164  110.56700134    0.51999998    2.59999990
   13.86361122   98.83239746    0.52999997    2.61999989
   13.86666679  113.32700348    0.52999997    2.59999990
   13.86999989  103.40299988    0.52999997    2.59999990
   13.87333393  111.58599854    0.52999997    2.61999989
   13.87638855  101.17299652    0.52999997    2.59999990
   13.87972260  108.68099976    0.51999998    2.59999990
   13.88305569  111.11599731    0.52999997    2.59999990
   13.88611126  102.33100128    0.51999998    2.59999990
   13.88944435  103.23799896    0.51999998    2.59999990
   13.89527798  103.23799896    0.52999997    2.61999989
   13.89944458   99.56620026    0.51999998    2.61999989
   13.90277767  103.26300049    0.52999997    2.61999989
   13.90583324  103.38800049    0.52999997    2.61999989
   13.90916634  107.83999634    0.52999997    2.61999989
   13.91249943  108.14099884    0.52999997    2.61999989
   13.91555500  103.09500122    0.51999998    2.59999990
   13.91888905  102.26699829    0.51999998    2.59999990
   13.92222214   99.77719879    0.50000000    2.61999989
   13.92527771  101.08499908    0.50000000    2.61999989
   13.92777824   98.82589722    0.51999998    2.61999989
   13.92888927  103.38600159    0.51999998    2.61999989
   13.93194485  102.25299835    0.51999998    2.61999989
   13.93805599  102.25299835    0.51999998    2.59999990
   13.94222260  103.07900238    0.51999998    2.61999989
   13.94555569  102.45300293    0.51999998    2.61999989
   13.94888878  103.18399811    0.51999998    2.61999989
   13.95194435  108.31800079    0.51999998    2.61999989
   13.95527744  109.95999908    0.51999998    2.61999989
   13.95861053  107.33200073    0.50000000    2.61999989
   13.96111107  106.66699982    0.50000000    2.61999989
   13.96222210  112.74900055    0.50000000    2.61999989
   13.96527767  114.12500000    0.50000000    2.61999989
   13.96861076  103.04199982    0.50000000    2.61999989
   13.97194386  103.25099945    0.50000000    2.61999989
   13.97499943  103.77200317    0.50000000    2.61999989
   13.98111057  103.77200317    0.50000000    2.61999989
   13.98527813  104.87599945    0.50000000    2.61999989
   13.98833370  106.53399658    0.47999999    2.61999989
   13.99166679  112.58799744    0.50000000    2.61999989
   13.99444485  102.12400055    0.47999999    2.61999989
   13.99527836  101.70300293    0.47999999    2.61999989
   13.99833393  110.13899994    0.50000000    2.61999989
   14.00166702  107.88200378    0.47999999    2.64000010
   14.00500011  107.45800018    0.50000000    2.64000010
   14.00805569  102.24400330    0.50000000    2.64000010
   14.01138878  110.96499634    0.50000000    2.64000010
   14.01472187  110.26599884    0.50000000    2.61999989
   14.01777744  113.63500214    0.50000000    2.61999989
   14.02388859  113.63500214    0.50000000    2.64000010
   14.02805519  108.00499725    0.50000000    2.61999989
   14.03111076  109.94300079    0.50000000    2.61999989
   14.03444481  106.51200104    0.50000000    2.64000010
   14.03777790  110.72699738    0.50000000    2.61999989
   14.04083347  113.50700378    0.47999999    2.64000010
   14.04416752  116.54199982    0.50000000    2.64000010
   14.04750061  103.58599854    0.50000000    2.64000010
   14.05055618  106.23999786    0.50000000    2.61999989
   14.05388927  122.24099731    0.50000000    2.61999989
   14.05694485  109.22699738    0.50000000    2.61999989
   14.06027794  116.25599670    0.50000000    2.64000010
   14.06111145  109.37799835    0.50000000    2.64000010
   14.06666660  109.37799835    0.50000000    2.61999989
   14.07083321  118.80599976    0.50000000    2.64000010
   14.07416630  107.20600128    0.50000000    2.64000010
   14.07722187  104.96499634    0.50000000    2.61999989
   14.09499931  107.04000092    0.50000000    2.61999989
   14.09722233  103.69000244    0.50000000    2.61999989
   14.10055637  104.14499664    0.50000000    2.61999989
   14.10388947  107.17800140    0.51999998    2.64000010
   14.10972214  107.17800140    0.51999998    2.64000010
   14.11388969  103.87200165    0.50000000    2.64000010
   14.11694431  121.78500366    0.50000000    2.64000010
   14.12027836  102.62500000    0.50000000    2.61999989
   14.12361145  103.19999695    0.51999998    2.64000010
   14.12666702  104.55300140    0.50000000    2.61999989
   14.12805557  107.91500092    0.50000000    2.61999989
   14.13027763  108.88400269    0.50000000    2.64000010
   14.13361073  105.32599640    0.50000000    2.64000010
   14.13666630  116.12599945    0.50000000    2.61999989
   14.14000034  110.90100098    0.52999997    2.64000010
   14.14305496  102.23799896    0.52999997    2.64000010
   14.14638901   98.51190186    0.52999997    2.64000010
   14.15249920   98.51190186    0.56999999    2.61999989
   14.15666676  103.76799774    0.56999999    2.61999989
   14.15999985  104.39800262    0.55000001    2.61999989
   14.16138840   98.83940125    0.55000001    2.61999989
   14.16361046  101.83100128    0.56999999    2.61999989
   14.16694450  102.87400055    0.56999999    2.61999989
   14.17000008  106.85800171    0.61000001    2.61999989
   14.17333412  107.17600250    0.61000001    2.61999989
   14.17638874  110.93000031    0.63000000    2.61999989
   14.17972279  107.80799866    0.63000000    2.64000010
   14.18305588  104.78399658    0.63000000    2.64000010
   14.18638897  117.33100128    0.64999998    2.64000010
   14.18944454  107.37999725    0.64999998    2.64000010
   14.19527817  107.37999725    0.64999998    2.61999989
   14.19944477  101.75700378    0.67000002    2.61999989
   14.20277786  106.24800110    0.67000002    2.61999989
   14.20611095  106.48000336    0.64999998    2.61999989
   14.20916653  101.33799744    0.67000002    2.64000010
   14.21249962  108.83499908    0.69000000    2.64000010
   14.21583271  112.70200348    0.69000000    2.64000010
   14.21916580  108.16500092    0.69000000    2.64000010
   14.22222137  109.83100128    0.69000000    2.64000010
   14.22555542  101.12500000    0.67000002    2.61999989
   14.22805500  104.27500153    0.69000000    2.64000010
   14.22916603  100.02200317    0.69000000    2.64000010
   14.23249912  103.83100128    0.73000002    2.64000010
   14.23833370  103.83100128    0.73000002    2.61999989
   14.24250031  106.07099915    0.73000002    2.61999989
   14.24555588  100.64299774    0.73000002    2.64000010
   14.24888897   98.09739685    0.73000002    2.64000010
   14.25222206  102.30200195    0.70999998    2.64000010
   14.25527763  101.72799683    0.69000000    2.64000010
   14.25861073  104.05400085    0.69000000    2.64000010
   14.26166630   99.75879669    0.64999998    2.64000010
   14.26249981  116.87699890    0.64999998    2.64000010
   14.26555538  102.37200165    0.61000001    2.64000010
   14.26888847  117.34500122    0.61000001    2.64000010
   14.27222157  118.99099731    0.61000001    2.61999989
   14.27527714  124.91500092    0.58999997    2.64000010
   14.28111076  124.91500092    0.58999997    2.64000010
   14.28527832  134.23800659    0.58999997    2.64000010
   14.28861141  122.34100342    0.58999997    2.64000010
   14.29166698  102.49500275    0.56999999    2.64000010
   14.29472256  120.73400116    0.55000001    2.64000010
   14.29527855  119.98899841    0.55000001    2.64000010
   14.29861164  121.30699921    0.55000001    2.64000010
   14.30166721  121.23400116    0.55000001    2.64000010
   14.30500031  108.65100098    0.51999998    2.64000010
   14.30833340  121.08200073    0.51999998    2.64000010
   14.31138897  129.36399841    0.51999998    2.64000010
   14.31472206  126.54000092    0.50000000    2.64000010
   14.31777763  114.92600250    0.50000000    2.64000010
   14.32388878  114.92600250    0.50000000    2.64000010
   14.32805538  109.66200256    0.50000000    2.64000010
   14.32861137  119.22100067    0.50000000    2.64000010
   14.33166695  108.54100037    0.50000000    2.64000010
   14.33500004  101.11000061    0.50000000    2.64000010
   14.33833313  115.51000214    0.51999998    2.66000009
   14.34138870  101.03900146    0.50000000    2.64000010
   14.34472179  112.23000336    0.50000000    2.64000010
   14.34805489  121.62000275    0.50000000    2.64000010
   14.35111141  124.40200043    0.50000000    2.64000010
   14.35444450  128.24400330    0.51999998    2.64000010
   14.35750008  120.32800293    0.51999998    2.66000009
   14.36083412  112.42500305    0.51999998    2.64000010
   14.36194515  122.46600342    0.51999998    2.64000010
   14.36666679  122.46600342    0.51999998    2.66000009
   14.37083340  112.83300018    0.52999997    2.64000010
   14.37416649  127.05999756    0.52999997    2.64000010
   14.37750053  137.10299683    0.51999998    2.64000010
   14.38055611  134.74000549    0.51999998    2.64000010
   14.38388920  127.39499664    0.51999998    2.64000010
   14.38694477  114.15899658    0.50000000    2.66000009
   14.39027786  116.98899841    0.50000000    2.64000010
   14.39361095  125.30300140    0.47999999    2.66000009
   14.39527798  124.91000366    0.47999999    2.66000009
   14.39694405  128.64199829    0.47999999    2.66000009
   14.40027714  136.86099243    0.47999999    2.66000009
   14.40361118  127.60500336    0.47999999    2.64000010
   14.40972137  127.60500336    0.47999999    2.66000009
   14.41388893  140.75900269    0.50000000    2.66000009
   14.41694450  142.32200623    0.47999999    2.66000009
   14.42027855  165.01499939    0.47999999    2.64000010
   14.42333412  161.33999634    0.50000000    2.66000009
   14.42666721  178.68099976    0.50000000    2.66000009
   14.42861176  169.61099243    0.47999999    2.66000009
   14.43027782  171.92300415    0.47999999    2.66000009
   14.43361092  164.79499817    0.47999999    2.66000009
   14.43694496  152.96400452    0.47999999    2.66000009
   14.44000053  167.77400208    0.47999999    2.66000009
   14.44333363  136.85499573    0.47999999    2.66000009
   14.44666672  152.88999939    0.47999999    2.66000009
   14.45249939  152.88999939    0.47999999    2.66000009
   14.45666695  151.51600647    0.50000000    2.64000010
   14.45972157  160.76400757    0.50000000    2.66000009
   14.46194458  145.43499756    0.50000000    2.66000009
   14.46333313  127.34600067    0.50000000    2.66000009
   14.46666622  140.60899353    0.50000000    2.66000009
   14.46999931  138.33299255    0.50000000    2.66000009
   14.47305489  143.85299683    0.50000000    2.66000009
   14.47638798  139.32200623    0.50000000    2.66000009
   14.47972202  137.41600037    0.51999998    2.66000009
   14.48277760  153.10200500    0.50000000    2.66000009
   14.48611164  124.44899750    0.50000000    2.66000009
   14.48916721  139.59700012    0.50000000    2.66000009
   14.49527836  139.59700012    0.50000000    2.66000009
   14.49944496  149.03300476    0.47999999    2.66000009
   14.50277805  148.71000671    0.47999999    2.66000009
   14.50583363  134.56100464    0.47999999    2.66000009
   14.50916672  152.12300110    0.47999999    2.66000009
   14.51249981  156.65499878    0.47999999    2.66000009
   14.51555538  141.99600220    0.47999999    2.66000009
   14.51916599  133.22200012    0.47999999    2.66000009
   14.52222157  145.62699890    0.47999999    2.67000008
   14.52555561  127.21900177    0.47999999    2.67000008
   14.52861118  122.69300079    0.47999999    2.66000009
   14.52916622  116.08899689    0.47999999    2.66000009
   14.53222179  122.55500031    0.47999999    2.66000009
   14.53805637  122.55500031    0.47999999    2.66000009
   14.54222298  112.01599884    0.47999999    2.66000009
   14.54555607  107.33399963    0.47999999    2.66000009
   14.54888916  103.64900208    0.47999999    2.66000009
   14.55194473  107.99199677    0.47999999    2.66000009
   14.55527782  103.36799622    0.47999999    2.66000009
   14.55833340  103.86900330    0.47999999    2.67000008
   14.56166649  105.36900330    0.47999999    2.66000009
   14.56222248  100.64800262    0.47999999    2.66000009
   14.56555557  108.39700317    0.47999999    2.66000009
   14.56861115  100.80000305    0.47999999    2.66000009
   14.57194424  100.69100189    0.47999999    2.67000008
   14.57499981  101.23899841    0.47999999    2.67000008
   14.58111095  101.23899841    0.47999999    2.66000009
   14.58500004  107.82199860    0.50000000    2.66000009
   14.58833313  104.06500244    0.47999999    2.66000009
   14.59166622   99.89839935    0.47999999    2.66000009
   14.59472179  100.97899628    0.47999999    2.66000009
   14.59555531  100.57399750    0.47999999    2.67000008
   14.59861088   97.47160339    0.47999999    2.67000008
   14.60166740  102.51799774    0.47999999    2.66000009
   14.60500050  107.03399658    0.47999999    2.66000009
   14.60833359  103.03500366    0.47999999    2.66000009
   14.61138916  101.00199890    0.47999999    2.66000009
   14.61472225   98.87449646    0.47999999    2.67000008
   14.61805534  100.97399902    0.47999999    2.66000009
   14.62388897  100.97399902    0.47999999    2.66000009
   14.62805557  104.57399750    0.47999999    2.67000008
   14.62888908   99.11949921    0.47999999    2.67000008
   14.63138866   99.44570160    0.50000000    2.67000008
   14.63472176  105.38500214    0.50000000    2.67000008
   14.63805580  104.11199951    0.50000000    2.67000008
   14.64111137  104.43599701    0.50000000    2.66000009
   14.64444447  101.84899902    0.50000000    2.67000008
   14.64777756  107.94999695    0.50000000    2.66000009
   14.65083313  100.61699677    0.50000000    2.66000009
   14.65416622  100.65599823    0.50000000    2.66000009
   14.65749931   99.61080170    0.50000000    2.66000009
   14.66055489  102.87699890    0.51999998    2.66000009
   14.66222191  104.28299713    0.50000000    2.67000008
   14.66666698  104.28299713    0.47999999    2.67000008
   14.67083359  111.05899811    0.47999999    2.66000009
   14.67416668  109.63700104    0.47999999    2.66000009
   14.67722225   97.60990143    0.47999999    2.66000009
   14.68055630  103.14700317    0.47999999    2.66000009
   14.68388939  107.27899933    0.50000000    2.67000008
   14.68722248  111.83200073    0.50000000    2.67000008
   14.69027805  106.89499664    0.47999999    2.67000008
   14.69361115  123.98600006    0.47999999    2.67000008
   14.69555569  110.50900269    0.47999999    2.67000008
   14.69722271  125.27799988    0.47999999    2.66000009
   14.70027733  119.86799622    0.47999999    2.67000008
   14.70361137  110.23200226    0.47999999    2.67000008
   14.70944405  110.23200226    0.47999999    2.67000008
   14.71361065   98.83920288    0.47999999    2.67000008
   14.71694374  100.28700256    0.50000000    2.67000008
   14.71999931  104.13300323    0.50000000    2.67000008
   14.72333336  103.70999908    0.47999999    2.66000009
   14.72666645  101.18900299    0.50000000    2.67000008
   14.72888851  101.42400360    0.50000000    2.67000008
   14.73027706  102.03500366    0.47999999    2.67000008
   14.73333359  100.97299957    0.47999999    2.67000008
   14.73666668  102.79799652    0.47999999    2.67000008
   14.73972225  105.88300323    0.47999999    2.66000009
   14.74305534  100.00299835    0.47999999    2.67000008
   14.74638939  103.96900177    0.47999999    2.67000008
   14.75249958  103.96900177    0.47999999    2.67000008
   14.75666714  100.53600311    0.47999999    2.67000008
   14.75972176  109.39199829    0.47999999    2.67000008
   14.76222229  104.20200348    0.47999999    2.67000008
   14.76361084  112.25599670    0.46000001    2.67000008
   14.76666641  100.90499878    0.46000001    2.67000008
   14.76999950   99.59030151    0.47999999    2.67000008
   14.77333355  104.44300079    0.47999999    2.67000008
   14.77638817  102.45999908    0.46000001    2.67000008
   14.77972221  107.10600281    0.46000001    2.67000008
   14.78277779  104.48999786    0.46000001    2.67000008
   14.78611183  101.12500000    0.47999999    2.67000008
   14.78944492   97.25409698    0.47999999    2.67000008
   14.79527855   97.25409698    0.47999999    2.67000008
   14.79944515  102.66100311    0.47999999    2.67000008
   14.80249977  110.60199738    0.47999999    2.67000008
   14.80611134  100.49800110    0.47999999    2.66000009
   14.80916691  100.17800140    0.50000000    2.67000008
   14.81250000  110.73400116    0.50000000    2.67000008
   14.81555557  110.97200012    0.47999999    2.67000008
   14.81888866   99.68750000    0.50000000    2.67000008
   14.82222176  100.67700195    0.51999998    2.67000008
   14.82527733  100.02400208    0.51999998    2.67000008
   14.82861137  104.53600311    0.51999998    2.67000008
   14.83027744  104.53600311    0.51999998    2.67000008
   14.83222198   95.89140320    0.51999998    2.67000008
   14.83805561   95.89140320    0.51999998    2.67000008
   14.84222221   99.88960266    0.52999997    2.67000008
   14.84555531  100.39299774    0.51999998    2.67000008
   14.84861088  106.46900177    0.51999998    2.67000008
   14.85194492  101.88999939    0.51999998    2.67000008
   14.85527802  103.82199860    0.51999998    2.67000008
   14.85833359  101.22499847    0.52999997    2.67000008
   14.86166668  100.70099640    0.51999998    2.67000008
   14.86361122  101.50199890    0.51999998    2.67000008
   14.86527824  100.04799652    0.51999998    2.67000008
   14.86833382  101.54499817    0.51999998    2.67000008
   14.87166691  100.77899933    0.51999998    2.67000008
   14.87472248  100.31199646    0.51999998    2.67000008
   14.88083363  100.31199646    0.50000000    2.67000008
   14.88500023  100.51300049    0.50000000    2.67000008
   14.88833332  102.10099792    0.50000000    2.67000008
   14.89166641   99.87750244    0.50000000    2.67000008
   14.89472198  105.59500122    0.51999998    2.67000008
   14.89722252  105.13600159    0.51999998    2.67000008
   14.89833355  102.36199951    0.50000000    2.67000008
   14.90166664  103.17900085    0.50000000    2.67000008
   14.90472221  100.74400330    0.50000000    2.67000008
   14.90805531   99.88639832    0.50000000    2.67000008
   14.91138840  104.00099945    0.50000000    2.67000008
   14.91444397  102.10299683    0.47999999    2.67000008
   14.91777802  101.48200226    0.50000000    2.67000008
   14.92388916  101.48200226    0.50000000    2.67000008
   14.92777824   99.40209961    0.51999998    2.67000008
   15.02527714   -1.00000000   -1.00000000   -1.00000000
   15.25500011   -1.00000000   -1.00000000   -1.00000000
   15.36222267   -1.00000000   -1.00000000   -1.00000000
   15.52333355   72.01429749    0.64999998    2.69000006
   15.52666664  107.06400299    0.64999998    2.69000006
   15.52972221  108.80400085    0.63000000    2.69000006
   15.53305531  102.67700195    0.63000000    2.69000006
   15.53638935  103.16200256    0.63000000    2.71000004
   15.53944492  109.80200195    0.63000000    2.69000006
   15.54361153  109.80200195    0.63000000    2.71000004
   15.54777813  104.92700195    0.64999998    2.71000004
   15.55111122  102.84600067    0.64999998    2.69000006
   15.55444431   98.69339752    0.63000000    2.69000006
   15.55666733   97.17289734    0.63000000    2.69000006
   15.55805588  102.26699829    0.64999998    2.69000006
   15.56111145  102.30400085    0.64999998    2.69000006
   15.56444454  100.13300323    0.63000000    2.71000004
   15.56750011  106.09700012    0.63000000    2.69000006
   15.57083321  117.08100128    0.61000001    2.69000006
   15.57416630   99.13529968    0.61000001    2.69000006
   15.57722187  110.67500305    0.61000001    2.69000006
   15.58055592  110.16300201    0.61000001    2.69000006
   15.58638859  110.16300201    0.61000001    2.69000006
   15.59055519  105.18800354    0.61000001    2.69000006
   15.59388828  102.08100128    0.58999997    2.69000006
   15.59694386  104.28199768    0.58999997    2.69000006
   15.60027790  101.77799988    0.61000001    2.71000004
   15.60361195   99.26470184    0.58999997    2.71000004
   15.60666752   97.78970337    0.58999997    2.71000004
   15.61000061  100.58699799    0.58999997    2.69000006
   15.61333370  106.25599670    0.61000001    2.69000006
   15.61638927  102.63300323    0.61000001    2.71000004
   15.61972237  103.57700348    0.61000001    2.71000004
   15.62305546  101.51000214    0.61000001    2.71000004
   15.62361145  103.09700012    0.61000001    2.71000004
   15.62944412  103.09700012    0.61000001    2.69000006
   15.63361073  106.08599854    0.61000001    2.69000006
   15.63666630  105.17600250    0.61000001    2.69000006
   15.64000034   99.04019928    0.58999997    2.69000006
   15.64305496   93.86789703    0.58999997    2.69000006
   15.64638901   99.96759796    0.61000001    2.69000006
   15.64972210  107.71600342    0.58999997    2.69000006
   15.65277767  101.57700348    0.58999997    2.69000006
   15.65611076   99.93170166    0.56999999    2.69000006
   15.65694427  103.89900208    0.56999999    2.69000006
   15.65999985  100.69000244    0.56999999    2.69000006
   15.66305542  101.84899902    0.56999999    2.71000004
   15.66638851  102.88600159    0.56999999    2.71000004
   15.67222214  102.88600159    0.56999999    2.71000004
   15.67638874  102.31800079    0.56999999    2.69000006
   15.67944431  100.19999695    0.56999999    2.69000006
   15.68277836  101.88200378    0.58999997    2.69000006
   15.68611145  105.17500305    0.58999997    2.69000006
   15.68916702  101.69100189    0.56999999    2.69000006
   15.69027805   95.65000153    0.56999999    2.69000006
   15.69277763   99.53700256    0.56999999    2.69000006
   15.69611073  100.56300354    0.56999999    2.69000006
   15.69944477   99.13169861    0.56999999    2.71000004
   15.70249939  103.44400024    0.56999999    2.71000004
   15.70583344   97.81590271    0.56999999    2.71000004
   15.70916653   97.80799866    0.55000001    2.71000004
   15.71500015   97.80799866    0.55000001    2.69000006
   15.71916580   96.82689667    0.55000001    2.71000004
   15.72249985   99.45610046    0.55000001    2.69000006
   15.72361088   97.47399902    0.55000001    2.69000006
   15.72583294   95.86430359    0.55000001    2.69000006
   15.72916603   95.29419708    0.55000001    2.69000006
   15.73249912  103.84200287    0.52999997    2.69000006
   15.73555565  103.54799652    0.55000001    2.71000004
   15.73888874  104.09799957    0.55000001    2.69000006
   15.74222279  104.98899841    0.52999997    2.69000006
   15.74527836  104.18499756    0.55000001    2.69000006
   15.74861145  100.54799652    0.55000001    2.69000006
   15.75166702  101.03099823    0.55000001    2.71000004
   15.75777817  101.03099823    0.56999999    2.69000006
   15.76194477  103.75299835    0.58999997    2.71000004
   15.76527786  102.06900024    0.61000001    2.69000006
   15.76861095   99.74240112    0.61000001    2.69000006
   15.77166653  100.50800323    0.58999997    2.71000004
   15.77499962   96.04380035    0.58999997    2.71000004
   15.77805519  101.82700348    0.61000001    2.71000004
   15.78138828   99.79660034    0.61000001    2.71000004
   15.78472233  108.64299774    0.63000000    2.69000006
   15.78777790   97.42440033    0.63000000    2.69000006
   15.79027843   99.05329895    0.61000001    2.69000006
   15.79138947   97.15390015    0.61000001    2.69000006
   15.79472256   98.06089783    0.61000001    2.69000006
   15.80083370   98.06089783    0.63000000    2.69000006
   15.80500031  101.95600128    0.63000000    2.69000006
   15.80833340  102.58100128    0.63000000    2.69000006
   15.81138897  100.89700317    0.61000001    2.71000004
   15.81472206  103.57299805    0.61000001    2.71000004
   15.81805515  102.01399994    0.61000001    2.71000004
   15.82111073  101.99900055    0.61000001    2.71000004
   15.82361126  111.32399750    0.61000001    2.71000004
   15.82499981  102.36699677    0.61000001    2.71000004
   15.82805538  103.72799683    0.61000001    2.69000006
   15.83138847  100.60500336    0.61000001    2.69000006
   15.83444405  105.73699951    0.63000000    2.69000006
   15.83777714  114.42600250    0.63000000    2.71000004
   15.84361076  114.42600250    0.61000001    2.69000006
   15.84777737   97.52210236    0.61000001    2.69000006
   15.85083389  110.64900208    0.61000001    2.69000006
   15.85416698  106.40899658    0.61000001    2.69000006
   15.85694504  109.04399872    0.61000001    2.71000004
   15.85750008  110.00900269    0.61000001    2.71000004
   15.86083412  104.15899658    0.61000001    2.69000006
   15.86416721  105.11399841    0.61000001    2.69000006
   15.86722279  101.75599670    0.63000000    2.69000006
   15.87055588  107.37100220    0.61000001    2.71000004
   15.87388897  101.53700256    0.61000001    2.71000004
   15.87722206  106.99700165    0.63000000    2.71000004
   15.88027763  100.94400024    0.61000001    2.69000006
   15.88638878  100.94400024    0.61000001    2.69000006
   15.89055538   97.77490234    0.61000001    2.69000006
   15.89388847   99.39810181    0.61000001    2.69000006
   15.89694405  101.25599670    0.63000000    2.69000006
   15.90027714  101.48000336    0.63000000    2.69000006
   15.90333271   98.79329681    0.63000000    2.69000006
   15.90666676   98.19360352    0.63000000    2.71000004
   15.90999985  107.32399750    0.63000000    2.71000004
   15.91305542  102.28099823    0.63000000    2.71000004
   15.91638851   97.60620117    0.63000000    2.71000004
   15.91972256  101.67800140    0.63000000    2.69000006
   15.92277813  102.37899780    0.64999998    2.69000006
   15.92361164  103.17099762    0.64999998    2.69000006
   15.92916679  103.17099762    0.67000002    2.69000006
   15.93333340  110.47299957    0.67000002    2.69000006
   15.93666649   99.81390381    0.67000002    2.69000006
   15.93972206  103.52500153    0.67000002    2.69000006
   15.94305515  100.16200256    0.67000002    2.71000004
   15.94638920   94.05429840    0.67000002    2.69000006
   15.94944477   98.93669891    0.67000002    2.69000006
   15.95277786   98.33789825    0.67000002    2.69000006
   15.95611095  100.48200226    0.67000002    2.69000006
   15.95694447   97.44100189    0.67000002    2.69000006
   15.95972157  100.61299896    0.67000002    2.69000006
   15.96277714   98.80580139    0.67000002    2.69000006
   15.96611118  101.59700012    0.64999998    2.69000006
   15.97222137  101.59700012    0.63000000    2.69000006
   15.97611046   97.31729889    0.63000000    2.69000006
   15.97944355   97.92420197    0.63000000    2.69000006
   15.98277760  101.50900269    0.63000000    2.69000006
   15.98583317  101.32499695    0.63000000    2.69000006
   15.98916721  104.47399902    0.63000000    2.71000004
   15.99027824   98.06030273    0.63000000    2.71000004
   15.99277782   98.95850372    0.63000000    2.69000006
   15.99583340  106.83799744    0.63000000    2.69000006
   15.99916649   95.50789642    0.63000000    2.69000006
   16.00222206   96.96720123    0.63000000    2.71000004
   16.00555611   98.06800079    0.63000000    2.69000006
   16.00888824   98.18530273    0.63000000    2.69000006
   16.01499939   98.18530273    0.63000000    2.71000004
   16.01916695  100.49400330    0.63000000    2.71000004
   16.02222252  100.26000214    0.64999998    2.71000004
   16.02361107   97.89379883    0.64999998    2.71000004
   16.02611160   99.74690247    0.64999998    2.71000004
   16.02916718   95.12950134    0.67000002    2.69000006
   16.03249931   95.13749695    0.67000002    2.69000006
   16.03555489  101.57599640    0.67000002    2.69000006
   16.03888893  102.47799683    0.67000002    2.69000006
   16.04222107   99.50990295    0.70999998    2.71000004
   16.04527664   97.07599640    0.70999998    2.71000004
   16.04861069  100.12100220    0.70999998    2.71000004
   16.05194283  100.21900177    0.70999998    2.71000004
   16.05777740  100.21900177    0.73000002    2.69000006
   16.06194305   93.64150238    0.75000000    2.69000006
   16.06527710   98.81439972    0.73000002    2.71000004
   16.06833458   94.17600250    0.73000002    2.71000004
   16.07166672   97.86299896    0.76999998    2.69000006
   16.07500076   99.36270142    0.76999998    2.69000006
   16.07805634   97.15280151    0.73000002    2.69000006
   16.08139038  106.86900330    0.73000002    2.71000004
   16.08472252  100.42400360    0.70999998    2.71000004
   16.08777809  102.41999817    0.70999998    2.71000004
   16.09027863  102.66300201    0.69000000    2.71000004
   16.09166718  100.25900269    0.69000000    2.71000004
   16.09472275  100.66400146    0.67000002    2.71000004
   16.10055542  100.66400146    0.67000002    2.69000006
   16.10472298   98.78230286    0.67000002    2.69000006
   16.10805511   98.72769928    0.69000000    2.69000006
   16.11111069  101.68800354    0.69000000    2.71000004
   16.11444473  102.50599670    0.69000000    2.71000004
   16.11777878   99.50189972    0.67000002    2.69000006
   16.12083435   97.33830261    0.67000002    2.69000006
   16.12361145   96.72750092    0.67000002    2.69000006
   16.12472153   96.02660370    0.67000002    2.69000006
   16.12777710   99.01979828    0.67000002    2.69000006
   16.13111115  103.63899994    0.69000000    2.69000006
   16.13444519   99.11440277    0.69000000    2.71000004
   16.13750076  102.12699890    0.64999998    2.69000006
   16.14361191  102.12699890    0.63000000    2.71000004
   16.14749908  100.79699707    0.64999998    2.71000004
   16.15083313  100.15899658    0.64999998    2.71000004
   16.15416718   99.79599762    0.64999998    2.69000006
   16.15694427  101.93900299    0.67000002    2.71000004
   16.15777779  102.23200226    0.67000002    2.71000004
   16.16083336  101.98000336    0.67000002    2.71000004
   16.16416550  102.59300232    0.67000002    2.69000006
   16.16749954  100.41899872    0.69000000    2.71000004
   16.17055511  100.23300171    0.69000000    2.69000006
   16.17388916  103.92400360    0.69000000    2.71000004
   16.17722130  106.07599640    0.69000000    2.69000006
   16.18027687  100.29799652    0.69000000    2.69000006
   16.18638802  100.29799652    0.69000000    2.69000006
   16.19055557  104.02700043    0.67000002    2.71000004
   16.19361115  104.72200012    0.67000002    2.71000004
   16.19694328  106.95700073    0.67000002    2.71000004
   16.20027924  105.34100342    0.67000002    2.71000004
   16.20333481  101.90499878    0.67000002    2.69000006
   16.20666695  102.02600098    0.69000000    2.71000004
   16.20972252  106.90000153    0.67000002    2.69000006
   16.21333504  102.78700256    0.69000000    2.71000004
   16.21666718  100.48699951    0.70999998    2.69000006
   16.22000122   99.97119904    0.70999998    2.71000004
   16.22305679  102.90299988    0.70999998    2.71000004
   16.22361183   98.20709991    0.73000002    2.71000004
   16.22916794   98.20709991    0.73000002    2.69000006
   16.23333359   98.83950043    0.73000002    2.69000006
   16.23666763  101.84300232    0.73000002    2.69000006
   16.23972321  103.05200195    0.73000002    2.69000006
   16.24305534  104.38999939    0.75000000    2.69000006
   16.24611092  100.32499695    0.75000000    2.69000006
   16.24944496  102.92400360    0.73000002    2.69000006
   16.25277710  104.80300140    0.73000002    2.71000004
   16.25583267  103.05799866    0.73000002    2.71000004
   16.25694466  108.30100250    0.73000002    2.71000004
   16.25972176  103.36499786    0.73000002    2.71000004
   16.26277733  103.44100189    0.70999998    2.69000006
   16.26611137  100.74199677    0.70999998    2.69000006
   16.27194405  100.74199677    0.70999998    2.69000006
   16.27611160  103.64099884    0.70999998    2.69000006
   16.27944374   96.75270081    0.69000000    2.71000004
   16.28249931  100.94000244    0.67000002    2.69000006
   16.28583336  100.47000122    0.69000000    2.69000006
   16.28916550  107.53399658    0.69000000    2.71000004
   16.29027748   97.75440216    0.69000000    2.71000004
   16.29277802  100.91300201    0.69000000    2.71000004
   16.29611015  100.57800293    0.69000000    2.71000004
   16.29916573   99.57900238    0.69000000    2.71000004
   16.30249977  100.43099976    0.69000000    2.71000004
   16.30583191  100.08599854    0.69000000    2.69000006
   16.30888748  101.20500183    0.69000000    2.71000004
   16.31499863  101.20500183    0.69000000    2.71000004
   16.31888962  101.66799927    0.69000000    2.69000006
   16.32222366  101.50000000    0.67000002    2.71000004
   16.32361221  106.87000275    0.64999998    2.71000004
   16.32611275   97.07060242    0.64999998    2.71000004
   16.32944489  103.78500366    0.64999998    2.69000006
   16.33250046  106.47299957    0.64999998    2.71000004
   16.33583450   99.82800293    0.64999998    2.71000004
   16.33916664  102.89700317    0.64999998    2.71000004
   16.34222221   99.23410034    0.64999998    2.71000004
   16.34555626  100.13300323    0.64999998    2.71000004
   16.34861183  101.09100342    0.64999998    2.69000006
   16.35194397   96.37879944    0.64999998    2.71000004
   16.35777855   96.37879944    0.67000002    2.71000004
   16.36194420   91.41809845    0.64999998    2.71000004
   16.36499977   97.50119781    0.64999998    2.71000004
   16.36833382   95.58119965    0.64999998    2.71000004
   16.37166595  102.33899689    0.64999998    2.71000004
   16.37472153   99.61250305    0.64999998    2.71000004
   16.37805557  102.37999725    0.64999998    2.71000004
   16.38138962  100.20999908    0.67000002    2.71000004
   16.38444519   99.54440308    0.64999998    2.69000006
   16.38777733   99.20120239    0.64999998    2.71000004
   16.39027786  103.51200104    0.63000000    2.71000004
   16.39138794  102.47299957    0.63000000    2.71000004
   16.39472198  100.50099945    0.63000000    2.71000004
   16.40055466  100.50099945    0.61000001    2.71000004
   16.40472221   99.55180359    0.61000001    2.71000004
   16.40805435  100.94400024    0.63000000    2.71000004
   16.41110992  100.44799805    0.63000000    2.71000004
   16.41444397   98.74530029    0.61000001    2.71000004
   16.41749954   99.17079926    0.63000000    2.71000004
   16.42083359  103.02200317    0.63000000    2.69000006
   16.42361069  101.81500244    0.63000000    2.71000004
   16.42444420   97.46929932    0.63000000    2.71000004
   16.42777634  103.13800049    0.61000001    2.71000004
   16.43083191  100.40799713    0.61000001    2.71000004
   16.43416595  104.36599731    0.61000001    2.71000004
   16.43722153  102.62200165    0.61000001    2.71000004
   16.44333267  102.62200165    0.58999997    2.71000004
   16.44749832  100.25800323    0.58999997    2.71000004
   16.45083427   95.90940094    0.61000001    2.71000004
   16.45388985  101.48000336    0.61000001    2.71000004
   16.45694542  102.00000000    0.61000001    2.71000004
   16.45777893  102.64800262    0.61000001    2.71000004
   16.46111107  101.47799683    0.63000000    2.69000006
   16.46416664  105.23699951    0.63000000    2.69000006
   16.46750069   98.80480194    0.63000000    2.71000004
   16.47083473  103.20899963    0.63000000    2.71000004
   16.47389030  103.39399719    0.64999998    2.71000004
   16.47722244  102.30100250    0.64999998    2.71000004
   16.48027802  102.84899902    0.67000002    2.69000006
   16.48638916  102.84899902    0.67000002    2.71000004
   16.49027824   95.72609711    0.67000002    2.71000004
   16.49361229  100.55899811    0.69000000    2.69000006
   16.49694443   96.25039673    0.70999998    2.69000006
   16.50000000  103.01100159    0.73000002    2.71000004
   16.50333405  104.08399963    0.73000002    2.71000004
   16.50666618  110.33300018    0.73000002    2.71000004
   16.50972176   99.58380127    0.75000000    2.71000004
   16.51305580   98.54509735    0.73000002    2.69000006
   16.51638794  102.28299713    0.73000002    2.71000004
   16.51944351  102.12300110    0.76999998    2.69000006
   16.52277756  103.02799988    0.76999998    2.69000006
   16.52388954  101.60900116    0.79000002    2.69000006
   16.54444313  101.60900116    0.73000002    2.69000006
   16.54861069  102.30500031    0.75000000    2.69000006
   16.55194283  103.07099915    0.73000002    2.69000006
   16.55499840  101.54399872    0.73000002    2.69000006
   16.55694389  102.42500305    0.73000002    2.69000006
   16.55861092  100.11199951    0.73000002    2.71000004
   16.56194305   97.40049744    0.73000002    2.69000006
   16.56527710   99.79910278    0.73000002    2.69000006
   16.56833458   98.82920074    0.73000002    2.69000006
   16.57166672   95.88220215    0.73000002    2.71000004
   16.57472229   99.04290009    0.73000002    2.71000004
   16.57805634   97.48919678    0.73000002    2.71000004
   16.58139038   99.33670044    0.75000000    2.69000006
   16.58722305   99.33670044    0.73000002    2.71000004
   16.59138870  103.87699890    0.73000002    2.71000004
   16.59444427  103.22499847    0.70999998    2.71000004
   16.59777832  100.20400238    0.69000000    2.69000006
   16.60111237  102.81099701    0.70999998    2.69000006
   16.60444450  101.77200317    0.70999998    2.69000006
   16.60750008  103.72000122    0.70999998    2.71000004
   16.61083412  102.90200043    0.70999998    2.71000004
   16.61388969  104.01399994    0.70999998    2.69000006
   16.61722183  103.82499695    0.70999998    2.69000006
   16.62055588  104.82399750    0.70999998    2.69000006
   16.62361145   98.70559692    0.70999998    2.69000006
   16.62416649   98.61190033    0.70999998    2.69000006
   16.63000107   98.61190033    0.69000000    2.71000004
   16.63416672  100.29199982    0.67000002    2.71000004
   16.63750076  101.30699921    0.69000000    2.71000004
   16.64055634  104.30200195    0.69000000    2.71000004
   16.64388847   98.68090057    0.69000000    2.71000004
   16.64722252   99.48400116    0.70999998    2.71000004
   16.65027809  104.77799988    0.70999998    2.71000004
   16.65361023  101.22899628    0.70999998    2.71000004
   16.65694427  108.99700165    0.70999998    2.71000004
   16.65749931  102.28299713    0.70999998    2.71000004
   16.66055489  104.37899780    0.70999998    2.69000006
   16.66388893  103.18599701    0.73000002    2.71000004
   16.66722107  101.94699860    0.73000002    2.71000004
   16.67277718  101.94699860    0.73000002    2.71000004
   16.67694473  101.48200226    0.73000002    2.71000004
   16.68027687  105.11299896    0.75000000    2.69000006
   16.68361092  103.22299957    0.73000002    2.71000004
   16.68666649  107.49700165    0.73000002    2.69000006
   16.68999863  102.21499634    0.73000002    2.69000006
   16.69083214  104.51399994    0.75000000    2.69000006
   16.69361115  100.51599884    0.75000000    2.69000006
   16.69694328   99.26750183    0.76999998    2.69000006
   16.70027924   96.45600128    0.75000000    2.69000006
   16.70333481   96.98419952    0.76999998    2.69000006
   16.70666695  100.71099854    0.79000002    2.71000004
   16.70972252  100.40699768    0.79000002    2.71000004
   16.71583366  100.40699768    0.79000002    2.71000004
   16.72000122   97.82550049    0.80000001    2.71000004
   16.72305679   94.74130249    0.83999997    2.69000006
   16.72416687   98.13549805    0.83999997    2.69000006
   16.72666740   96.98560333    0.80000001    2.69000006
   16.73000145   99.64739990    0.80000001    2.69000006
   16.73333359   99.29299927    0.80000001    2.69000006
   16.73638916  101.64700317    0.75000000    2.69000006
   16.73972321  101.57299805    0.70999998    2.69000006
   16.74305534   99.79560089    0.70999998    2.71000004
   16.74611092  100.33899689    0.70999998    2.71000004
   16.74944496   97.23359680    0.70999998    2.71000004
   16.75277710   98.19619751    0.70999998    2.71000004
   16.75861168   98.19619751    0.69000000    2.71000004
   16.76277733   99.48310089    0.73000002    2.71000004
   16.76583290  100.18800354    0.73000002    2.71000004
   16.76916695  103.71800232    0.69000000    2.69000006
   16.77249908  102.54699707    0.70999998    2.71000004
   16.77555466   98.53549957    0.70999998    2.71000004
   16.77888870  104.55000305    0.69000000    2.69000006
   16.78194427  101.60399628    0.70999998    2.71000004
   16.78527641   99.48780060    0.70999998    2.71000004
   16.78861046   93.46600342    0.73000002    2.67000008
   16.79083252  102.45500183    0.73000002    2.67000008
   16.79194450   97.71189880    0.75000000    2.69000006
   16.79527664   97.12560272    0.75000000    2.69000006
   16.80138779   97.12560272    0.75000000    2.71000004
   16.80555534   99.91739655    0.75000000    2.71000004
   16.80888748   99.03289795    0.75000000    2.69000006
   16.81194305   98.53949738    0.75000000    2.71000004
   16.81527710  103.65000153    0.75000000    2.71000004
   16.81861115  100.70700073    0.75000000    2.71000004
   16.82166672  101.36299896    0.75000000    2.71000004
   16.82416725  105.71600342    0.75000000    2.71000004
   16.82527924  105.19599915    0.75000000    2.71000004
   16.82861137  100.23100281    0.73000002    2.71000004
   16.83194542  100.77600098    0.70999998    2.71000004
   16.83500099  100.52500153    0.70999998    2.71000004
   16.83833313  108.30400085    0.70999998    2.69000006
   16.84416771  108.30400085    0.75000000    2.67000008
   16.84833336  103.28800201    0.75000000    2.71000004
   16.85166740  103.13400269    0.76999998    2.71000004
   16.85499954   99.70870209    0.76999998    2.71000004
   16.85750008  104.07399750    0.79000002    2.71000004
   16.85833359   99.01319885    0.79000002    2.71000004
   16.86166763  105.53900146    0.80000001    2.71000004
   16.86499977  104.43399811    0.80000001    2.71000004
   16.86805534  101.99500275    0.80000001    2.71000004
   16.87138939   99.72540283    0.75000000    2.71000004
   16.87472153  104.15299988    0.75000000    2.69000006
   16.87777710  100.51000214    0.76999998    2.71000004
   16.88111115   97.73239899    0.76999998    2.71000004
   16.88722229   97.73239899    0.79000002    2.71000004
   16.89138794  103.88400269    0.80000001    2.71000004
   16.89444351   98.08290100    0.80000001    2.71000004
   16.89777756  101.15200043    0.80000001    2.69000006
   16.90083313   97.88500214    0.80000001    2.69000006
   16.90416718  107.73500061    0.80000001    2.71000004
   16.90749931  104.40000153    0.80000001    2.71000004
   16.91055489  107.60399628    0.83999997    2.71000004
   16.91388893  104.24500275    0.83999997    2.71000004
   16.91722107  103.52999878    0.86000001    2.69000006
   16.92027664  102.97399902    0.88000000    2.71000004
   16.92361069  101.33999634    0.88000000    2.71000004
   16.92416573  103.05500031    0.89999998    2.69000006
   16.93000031  103.05500031    0.88000000    2.71000004
   16.93416595  105.10800171    0.86000001    2.69000006
   16.93722153  106.02200317    0.81999999    2.71000004
   16.94055557  103.45300293    0.81999999    2.71000004
   16.94388771  108.48699951    0.83999997    2.71000004
   16.94694328  103.00000000    0.83999997    2.71000004
   16.95027924  104.35800171    0.81999999    2.69000006
   16.95361137  104.17400360    0.81999999    2.71000004
   16.95666695  106.91200256    0.83999997    2.69000006
   16.95750046  104.29799652    0.83999997    2.69000006
   16.96027946  103.79699707    0.83999997    2.69000006
   16.96361160  110.15799713    0.83999997    2.69000006
   16.96694565  108.93099976    0.88000000    2.69000006
   16.97277832  108.93099976    0.89999998    2.71000004
   16.97694588  104.54799652    0.88000000    2.69000006
   16.98027802  102.02500153    0.89999998    2.69000006
   16.98333359  101.30100250    0.89999998    2.69000006
   16.98666763  108.11900330    0.89999998    2.71000004
   16.98972321  103.27400208    0.88000000    2.69000006
   16.99083328  101.64299774    0.88000000    2.69000006
   16.99333382  106.64299774    0.88000000    2.69000006
   16.99666786  104.15799713    0.88000000    2.69000006
   17.00000000  101.72100067    0.88000000    2.69000006
   17.00305557  104.78700256    0.88000000    2.71000004
   17.00638962  104.44999695    0.89999998    2.69000006
   17.00972176  107.93499756    0.89999998    2.69000006
   17.01555634  107.93499756    0.92000002    2.69000006
   17.01972198  104.92299652    0.92000002    2.69000006
   17.02305603  100.96700287    0.92000002    2.71000004
   17.02416611  102.24099731    0.92000002    2.71000004
   17.02638817  107.39099884    0.92000002    2.71000004
   17.02972221  103.16600037    0.94000000    2.71000004
   17.03305435  104.27700043    0.94000000    2.69000006
   17.03610992  103.58200073    0.98000002    2.69000006
   17.03944397  102.84600067    0.94000000    2.69000006
   17.04277802  102.79799652    0.94000000    2.69000006
   17.04583359  103.82800293    1.01999998    2.69000006
   17.04916573  102.51200104    1.01999998    2.69000006
   17.05249977   99.58270264    0.98000002    2.69000006
   17.05861092   99.58270264    0.98000002    2.69000006
   17.06250000  104.81700134    1.00000000    2.69000006
   17.06583214  106.90799713    1.01999998    2.69000006
   17.06916809  103.93199921    1.01999998    2.69000006
   17.07222366  108.29399872    1.03999996    2.69000006
   17.07555580  101.63500214    1.03999996    2.69000006
   17.07888985  101.33300018    1.03999996    2.69000006
   17.08194542  102.54100037    1.01999998    2.69000006
   17.08527756  106.01300049    0.98000002    2.71000004
   17.08833313  105.31600189    0.94000000    2.69000006
   17.09083366  106.11199951    0.94000000    2.69000006
   17.09194565  103.62300110    0.94000000    2.69000006
   17.09527779  106.50900269    0.94000000    2.69000006
   17.10138893  106.50900269    0.94000000    2.69000006
   17.10555649  105.27400208    0.94000000    2.69000006
   17.10861206  103.72299957    0.95999998    2.69000006
   17.11194420  104.46199799    0.95999998    2.69000006
   17.11527824  101.65899658    0.95999998    2.69000006
   17.11833382  107.69300079    0.95999998    2.69000006
   17.12166595  111.95600128    0.94000000    2.69000006
   17.12416649  106.48999786    0.94000000    2.69000006
   17.12527847  104.98500061    0.94000000    2.69000006
   17.12833405  106.50199890    0.94000000    2.69000006
   17.13166618  105.62300110    0.94000000    2.69000006
   17.13472176  106.70300293    0.94000000    2.69000006
   17.13805580  103.84400177    0.94000000    2.69000006
   17.14416695  103.84400177    0.94000000    2.67000008
   17.14833260  112.17199707    0.89999998    2.69000006
   17.15166664  106.70800018    0.89999998    2.69000006
   17.15472221  106.26100159    0.86000001    2.69000006
   17.15749931  108.97399902    0.86000001    2.69000006
   17.15833282  107.13400269    0.83999997    2.69000006
   17.16166687  109.82800293    0.83999997    2.69000006
   17.16499901  109.22399902    0.86000001    2.71000004
   17.16805458  103.44499969    0.86000001    2.69000006
   17.17138863  106.26300049    0.86000001    2.69000006
   17.17472076  105.70500183    0.86000001    2.69000006
   17.17777634  106.00700378    0.83999997    2.69000006
   17.18111038  105.19799805    0.83999997    2.69000006
   17.18694305  105.19799805    0.81999999    2.69000006
   17.19111061  106.00399780    0.81999999    2.69000006
   17.19444275  103.47599792    0.81999999    2.69000006
   17.19777679  105.72499847    0.81999999    2.69000006
   17.20083427  106.48600006    0.81999999    2.69000006
   17.20416832  103.53500366    0.81999999    2.69000006
   17.20722389  113.30899811    0.81999999    2.67000008
   17.21055603  106.77899933    0.81999999    2.69000006
   17.21389008  108.06300354    0.81999999    2.69000006
   17.21694565  106.34600067    0.83999997    2.69000006
   17.22027779  123.56500244    0.80000001    2.69000006
   17.22361183  161.96099854    0.79000002    2.69000006
   17.22416687  141.98399353    0.79000002    2.69000006
   17.23000145  141.98399353    0.79000002    2.69000006
   17.23388863  117.15899658    0.86000001    2.69000006
   17.23722267  117.95999908    0.86000001    2.69000006
   17.24055672  104.65000153    0.86000001    2.67000008
   17.24361229  145.48300171    0.86000001    2.69000006
   17.24694443  120.74900055    0.88000000    2.69000006
   17.25027847  140.99499512    0.86000001    2.69000006
   17.25361061  163.99299622    0.83999997    2.69000006
   17.25666618  137.54600525    0.83999997    2.69000006
   17.25749969  158.68099976    0.81999999    2.69000006
   17.26055527  153.49899292    0.81999999    2.69000006
   17.26361084  147.19700623    0.81999999    2.69000006
   17.26694489  140.32699585    0.80000001    2.69000006
   17.27277756  140.32699585    0.80000001    2.69000006
   17.27694511  122.60800171    0.76999998    2.69000006
   17.28000069  119.30999756    0.76999998    2.69000006
   17.28333282  120.69699860    0.79000002    2.69000006
   17.28666687  119.27500153    0.81999999    2.69000006
   17.28972244  118.33699799    0.81999999    2.69000006
   17.29083252  103.46800232    0.88000000    2.69000006
   17.29361153  116.00499725    0.88000000    2.69000006
   17.29666710  106.18900299    0.83999997    2.69000006
   17.29999924  122.29799652    0.83999997    2.69000006
   17.30333328  113.11599731    0.83999997    2.69000006
   17.30638885  120.01699829    0.88000000    2.69000006
   17.30972099  100.84100342    0.88000000    2.69000006
   17.31555557  100.84100342    0.92000002    2.69000006
   17.31972313  104.80000305    0.94000000    2.69000006
   17.32305717  108.05699921    0.94000000    2.67000008
   17.32416725  104.47100067    0.94000000    2.69000006
   17.32666779  108.73699951    0.94000000    2.69000006
   17.32972336  103.03399658    0.95999998    2.69000006
   17.33305550  101.93499756    0.94000000    2.69000006
   17.33611107  103.83999634    0.94000000    2.69000006
   17.33944511  105.80699921    0.92000002    2.69000006
   17.34277916  105.22699738    0.89999998    2.69000006
   17.34583473  103.35700226    0.92000002    2.69000006
   17.34916687  103.44499969    0.92000002    2.69000006
   17.35250092  101.75399780    0.92000002    2.69000006
   17.35833359  101.75399780    0.94000000    2.69000006
   17.36250114  105.70400238    0.94000000    2.67000008
   17.36583328  102.67600250    0.98000002    2.69000006
   17.36916733  101.47499847    1.00000000    2.67000008
   17.37222290  104.96199799    1.00000000    2.67000008
   17.37555504  106.44799805    1.00000000    2.67000008
   17.37861061  102.53099823    1.00000000    2.67000008
   17.38194466  102.88500214    1.00000000    2.69000006
   17.38527679  102.40499878    0.98000002    2.67000008
   17.38833237  100.91699982    0.98000002    2.67000008
   17.39083290  101.08000183    0.98000002    2.67000008
   17.39222145  104.72200012    0.98000002    2.67000008
   17.39527702  109.63400269    1.30999994    2.67000008
   17.40138817  109.63400269    1.48000002    2.69000006
   17.40527725  105.32199860    1.50000000    2.67000008
   17.40861130  102.54299927    1.48000002    2.67000008
   17.41194344  103.80000305    1.00000000    2.67000008
   17.41527748  106.95500183    1.00000000    2.67000008
   17.41833305  104.47200012    1.07000005    2.69000006
   17.42166519  108.42099762    0.98000002    2.67000008
   17.42416573  107.31700134    0.95999998    2.69000006
   17.42527771  104.54000092    0.95999998    2.69000006
   17.42833328  104.41300201    1.00000000    2.67000008
   17.43166542  101.98100281    1.00000000    2.67000008
   17.43499947  118.91500092    0.94000000    2.67000008
   17.43805504  121.20500183    0.94000000    2.67000008
   17.44416618  121.20500183    0.94000000    2.69000006
   17.44833183  107.90599823    0.94000000    2.69000006
   17.45138931  110.84799957    0.95999998    2.67000008
   17.45472336  107.37999725    0.98000002    2.67000008
   17.45750046  109.80999756    0.98000002    2.67000008
   17.45833397  106.15899658    0.98000002    2.67000008
   17.46138954  105.80300140    0.95999998    2.69000006
   17.46472359  103.76699829    0.94000000    2.67000008
   17.46777916  107.83200073    0.95999998    2.67000008
   17.47111130  107.64299774    0.95999998    2.69000006
   17.47444534  106.73200226    0.95999998    2.69000006
   17.47750092  103.82399750    0.95999998    2.69000006
   17.48083305  102.90599823    1.00000000    2.69000006
   17.48694420  102.90599823    0.98000002    2.69000006
   17.49111176  102.98999786    0.98000002    2.67000008
   17.49416733  103.62500000    1.00000000    2.67000008
   17.49749947  103.37500000    0.95999998    2.69000006
   17.50083351  105.66600037    0.95999998    2.69000006
   17.50388908  107.35700226    0.95999998    2.67000008
   17.50722313  103.39099884    0.95999998    2.67000008
   17.51055527  108.78299713    0.94000000    2.67000008
   17.51361084  107.92700195    0.95999998    2.67000008
   17.51694489  108.09700012    1.09000003    2.67000008
   17.52027702  104.59600067    1.09000003    2.69000006
   17.52333260  106.92800140    1.07000005    2.67000008
   17.52416611  109.84799957    1.07000005    2.67000008
   17.52972221  109.84799957    1.07000005    2.67000008
   17.53388786  108.63200378    1.03999996    2.69000006
   17.53722191  107.17800140    1.05999994    2.69000006
   17.54027748  111.11799622    1.14999998    2.67000008
   17.55777740  101.40599823    1.14999998    2.67000008
   17.56027794  106.20400238    1.14999998    2.67000008
   17.56361008  100.77799988    1.14999998    2.67000008
   17.56666756  103.71299744    1.14999998    2.67000008
   17.57277870  103.71299744    1.03999996    2.67000008
   17.57694626  106.58699799    1.03999996    2.67000008
   17.58027840  108.51999664    1.03999996    2.67000008
   17.58333397  109.26799774    1.07000005    2.67000008
   17.58666801  107.64299774    1.09000003    2.67000008
   17.58972359  107.11100006    1.19000006    2.67000008
   17.59111214  108.08799744    1.19000006    2.67000008
   17.59361267  103.82900238    1.19000006    2.67000008
   17.59694481  109.33300018    1.33000004    2.67000008
   17.60000038  110.65000153    1.33000004    2.67000008
   17.60333443  110.35900116    1.63000000    2.66000009
   17.60666656  106.30999756    1.89999998    2.66000009
   17.60972214  102.56400299    1.69000006    2.66000009
   17.61555672  102.56400299    1.33000004    2.67000008
   17.61972237  106.42800140    1.30999994    2.67000008
   17.62305641  105.44599915    1.34000003    2.67000008
   17.62444496  109.21700287    1.41999996    2.67000008
   17.62666702  107.38800049    1.41999996    2.67000008
   17.62972260  106.33899689    1.58000004    2.66000009
   17.63305473  112.84500122    1.75000000    2.66000009
   17.63638878  113.03600311    1.58000004    2.66000009
   17.63944435  108.94100189    1.58000004    2.66000009
   17.64277840  110.43499756    1.55999994    2.67000008
   17.64611053  106.73200226    1.51999998    2.67000008
   17.64916611  106.25299835    1.60000002    2.67000008
   17.65250015  107.20999908    2.11999989    2.66000009
   17.65833282  107.20999908    2.19000006    2.66000009
   17.66250038  104.16799927    2.13000011    2.66000009
   17.66583252  102.40200043    1.89999998    2.66000009
   17.66916656  106.92600250    1.78999996    2.66000009
   17.67222214  105.09999847    1.61000001    2.66000009
   17.67555428  105.48200226    1.53999996    2.66000009
   17.67888832  104.07700348    1.53999996    2.67000008
   17.68194389  110.10600281    1.58000004    2.66000009
   17.68527603  104.56700134    2.05999994    2.66000009
   17.68833160  106.87899780    2.21000004    2.66000009
   17.69111061  105.85800171    2.36999989    2.66000009
   17.69222069  107.20700073    2.46000004    2.66000009
   17.69527626  107.61000061    2.84999990    2.57999992
   17.70138931  107.61000061    2.76999998    2.61999989
   17.70555687  104.78900146    2.73000002    2.64000010
   17.70861244  110.95899963    2.64000010    2.64000010
   17.71194458  107.90499878    2.57999992    2.64000010
   17.71527863  106.13400269    2.46000004    2.61999989
   17.71833420  105.55999756    2.36999989    2.64000010
   17.72166634  106.38700104    2.21000004    2.64000010
   17.72444534  108.56199646    2.21000004    2.66000009
   17.72527885  105.95099640    2.19000006    2.66000009
   17.72833443  104.73999786    1.85000002    2.66000009
   17.73166656  103.71900177    1.71000004    2.66000009
   17.73500061  109.79699707    1.61000001    2.66000009
   17.73805618  105.96600342    1.60000002    2.66000009
   17.74416733  105.96600342    1.96000004    2.64000010
   17.74833298  108.43599701    2.34999990    2.64000010
   17.75166702  106.05000305    2.32999992    2.64000010
   17.75472260  108.66999817    1.89999998    2.67000008
   17.75777817  122.56300354    1.64999998    2.66000009
   17.75833321  108.37699890    1.64999998    2.66000009
   17.76166725  110.20600128    1.61000001    2.66000009
   17.76472282  108.34899902    1.58000004    2.66000009
   17.76805496  104.53399658    1.38000000    2.67000008
   17.77111053  120.16200256    1.33000004    2.67000008
   17.77444458  110.13300323    1.41999996    2.67000008
   17.77777672  121.39399719    1.46000004    2.66000009
   17.78083229  105.68299866    1.51999998    2.66000009
   17.78694344  105.68299866    2.11999989    2.66000009
   17.79111099  117.50900269    2.11999989    2.64000010
   17.79166603  111.79900360    2.07999992    2.64000010
   17.79472160  107.13700104    2.05999994    2.66000009
   17.79805565  103.98300171    2.00000000    2.66000009
   17.80138779  113.90699768    1.94000006    2.66000009
   17.80444336  112.24099731    1.88000000    2.67000008
   17.80777740  106.25000000    1.69000006    2.66000009
   17.81110954  106.01300049    1.63000000    2.66000009
   17.81416512  103.98500061    1.63000000    2.66000009
   17.81750107  110.08200073    1.66999996    2.66000009
   17.82083511  109.18299866    1.66999996    2.67000008
   17.82389069  109.82499695    1.64999998    2.67000008
   17.82444572  108.34600067    1.64999998    2.67000008
   17.82972336  108.34600067    2.01999998    2.66000009
   17.83388901  105.36399841    2.48000002    2.64000010
   17.83722305   99.66210175    2.89000010    2.61999989
   17.84055710  111.97499847    3.61999989    2.61999989
   17.84361267  108.38200378    4.36999989    2.57999992
   17.84694481  108.60199738    4.82999992    2.55999994
   17.85000038  109.99900055    4.90999985    2.53999996
   17.85333443  104.60800171    4.90999985    2.53999996
   17.85666656  112.25199890    4.90999985    2.53999996
   17.85777855  118.70999908    4.90999985    2.53999996
   17.86027908  109.83200073    4.90999985    2.53999996
   17.86333466  114.86399841    4.90999985    2.51999998
   17.86666679  107.77799988    4.90999985    2.50000000
   17.87277794  107.77799988    4.90999985    2.57999992
   17.87694550  110.37300110    4.90999985    2.50000000
   17.88000107  114.60500336    4.90999985    2.46000004
   17.88333321  107.28700256    4.90999985    2.42000008
   17.88638878  106.69400024    4.90999985    2.48000002
   17.88972282  109.15799713    4.90999985    2.51999998
   17.89111137  112.67900085    4.90999985    2.51999998
   17.89333344  108.89499664    4.90999985    2.48000002
   17.89666748  108.30000305    4.90999985    2.53999996
   17.89972115  104.39399719    3.53999996    2.61999989
   17.90305519  105.50199890    3.01999998    2.59999990
   17.90611076  100.98699951    3.07999992    2.61999989
   17.90944481  103.69000244    2.86999989    2.61999989
   17.91555595  103.69000244    2.91000009    2.61999989
   17.91972160  107.76799774    2.57999992    2.61999989
   17.92277718  108.97399902    2.46000004    2.61999989
   17.92444420  107.65599823    2.40000010    2.64000010
   17.92666626  110.52100372    2.34999990    2.64000010
   17.93000031  110.00000000    2.40000010    2.61999989
   17.93305397  106.02100372    2.48000002    2.64000010
   17.93638802  105.52600098    3.64000010    2.61999989
   17.93944359  109.62599945    3.30999994    2.59999990
   17.94277763  103.53900146    4.90999985    2.59999990
   17.94610977  113.12699890    4.90999985    2.61999989
   17.94916534  101.73899841    3.57999992    2.61999989
   17.95250130  111.46700287    3.09999990    2.59999990
   17.95833397  111.46700287    3.00000000    2.64000010
   17.96250153  100.88899994    2.28999996    2.64000010
   17.96583366  102.81199646    2.42000008    2.61999989
   17.96888924  107.97200012    2.67000008    2.61999989
   17.97222328  107.66200256    2.50000000    2.64000010
   17.97555542  105.69400024    2.44000006    2.64000010
   17.97861099  107.33100128    2.51999998    2.64000010
   17.98194504  105.48899841    2.51999998    2.61999989
   17.98527718  108.38899994    2.84999990    2.61999989
   17.98833275  110.89299774    4.90999985    2.64000010
   17.99111176  110.52500153    4.84999990    2.51999998
   17.99194527  115.01999664    4.84999990    2.51999998
   17.99500084  106.48699951    4.90999985    2.53999996
   18.00138855  106.48699951    3.34999990    2.57999992
   18.00527763  105.93599701    3.11999989    2.61999989
   18.00861168  110.09799957    2.94000006    2.59999990
   18.01194382  102.52100372    3.86999989    2.61999989
   18.01499939  107.05400085    4.90999985    2.64000010
   18.01833344  124.07399750    4.90999985    2.59999990
   18.02138901  115.30500031    4.90999985    2.46000004
   18.02444458  106.54900360    4.90999985    2.21000004
   18.02527809  109.11900330    4.90999985    2.21000004
   18.02861023  123.51100159    4.90999985    2.53999996
   18.03166580  117.65699768    4.90999985    2.53999996
   18.03499985  151.12399292    4.90999985    1.73000002
   18.03805542  106.31300354    4.90999985    2.32999992
   18.04416656  106.31300354    4.26999998    2.55999994
   18.04833221  108.45300293    3.34999990    2.61999989
   18.05138779  107.76599884    2.55999994    2.61999989
   18.05472183  106.46600342    3.14000010    2.64000010
   18.05777740  109.25499725    3.78999996    2.64000010
   18.05833244  104.23500061    3.78999996    2.64000010
   18.06138802  107.55100250    3.70000005    2.64000010
   18.06472206  105.55699921    4.26999998    2.57999992
   18.06805611  110.70200348    4.88999987    2.57999992
   18.07111168  107.83000183    4.90999985    2.51999998
   18.07444572  109.63400269    4.90999985    2.53999996
   18.07777786  108.40000153    4.88999987    2.59999990
   18.08083344  112.49199677    4.90999985    2.59999990
   18.08694458  112.49199677    4.90999985    2.51999998
   18.09111214  124.13700104    4.90999985    2.15000010
   18.09166718  146.34399414    4.90999985    2.28999996
   18.09472275  204.26300049    4.90999985    2.25000000
   18.09805679  108.41200256    4.90999985    1.01999998
   18.10138893  172.27000427    4.90999985    1.55999994
   18.10444450  226.13200378    4.90999985    1.88000000
   18.10777855  219.45300293    4.90999985    1.88000000
   18.11083412  200.58700562    4.90999985    1.94000006
   18.11416626   -1.00000000    4.90999985    1.86000001
   18.11750031   -1.00000000    4.90999985    1.51999998
   18.12055588   -1.00000000    4.90999985    1.69000006
   18.12388992   -1.00000000    4.90999985    0.13000000
   18.13388824   -1.00000000    4.90999985    0.11000000
   18.13722229   -1.00000000    4.90999985    0.25999999
   18.14027786   -1.00000000    4.90999985    0.47999999
   18.14361191   -1.00000000    4.90999985    0.47999999
   18.14666748  129.30200195    4.90999985    1.03999996
   18.14999962  304.06799316    4.90999985    1.33000004
   18.15333366  133.77400208    4.90999985    2.11999989
   18.15638924  123.52700043    4.90999985    2.11999989
   18.15833282  119.11799622    4.90999985    2.28999996
   18.15999985  122.32099915    4.90999985    2.32999992
   18.16333389  117.83999634    4.90999985    2.28999996
   18.16666603  110.44599915    4.90999985    2.40000010
   18.17277718  110.44599915    4.90999985    2.48000002
   18.17666626  115.72899628    4.90999985    2.53999996
   18.18000031  108.92500305    4.90999985    2.39000010
   18.18333244  123.37500000    4.90999985    2.53999996
   18.18638802  106.04499817    4.90999985    1.96000004
   18.18972206  110.80599976    4.90999985    2.59999990
   18.19166565  111.21800232    4.90999985    2.64000010
   18.19305420  112.44200134    4.90999985    2.66000009
   18.19638824   -1.00000000    4.90999985    1.66999996
   18.19972038   -1.00000000    4.90999985    0.44000000
   18.20277786   -1.00000000    4.90999985    1.33000004
   18.20611191  115.87500000    4.90999985    2.01999998
   18.20916748  112.35500336    4.90999985    2.69000006
   18.21944427   -1.00000000    4.90999985    0.25999999
   18.22277832   -1.00000000    4.90999985    0.23000000
   18.22500038  211.42799377    4.90999985    0.38000000
   18.22638893  124.23999786    4.90999985    0.64999998
   18.22972298  109.58300018    4.90999985    2.66000009
   18.23305511  116.34100342    4.90999985    2.61999989
   18.23611069  115.13300323    4.90999985    2.40000010
   18.23944473  108.34799957    4.90999985    2.57999992
   18.24277878  113.97599792    4.21999979    2.57999992
   18.24583435  115.90200043    3.84999990    2.57999992
   18.24916649  116.25599670    3.84999990    2.57999992
   18.25222206  114.36199951    4.46999979    2.55999994
   18.25833321  114.36199951    4.90999985    2.50000000
   18.26250076  117.01899719    4.90999985    2.39000010
   18.26555634  119.51899719    4.90999985    2.36999989
   18.26888847  122.23799896    4.90999985    2.26999998
   18.27249908  123.04399872    4.90999985    2.23000002
   18.27555466  124.38999939    4.90999985    2.26999998
   18.27888870  111.69899750    4.90999985    2.23000002
   18.28222275  117.69499969    4.90999985    2.30999994
   18.28527641  121.22699738    4.90999985    2.34999990
   18.28861046  134.28799438    4.90999985    2.28999996
   18.29166603  139.92300415    4.90999985    2.11999989
   18.29194450  133.26600647    4.90999985    2.11999989
   18.29527664  150.39900208    4.90999985    2.11999989
   18.30111122  150.39900208    4.90999985    2.05999994
   18.30527687  137.62300110    4.90999985    1.98000002
   18.30861092  125.35600281    4.90999985    2.15000010
   18.31166649  123.49199677    4.90999985    2.25000000
   18.31499863  121.16000366    4.90999985    2.30999994
   18.31833458  114.24299622    4.90999985    2.39000010
   18.32139015  166.86199951    4.90999985    2.26999998
   18.32472229  117.12799835    4.90999985    2.26999998
   18.32527924  138.89100647    4.90999985    2.26999998
   18.32833481  123.06300354    4.90999985    2.13000011
   18.33166695  115.77400208    4.90999985    2.39000010
   18.33500099  115.25499725    4.90999985    2.40000010
   18.33805656  111.36399841    4.90999985    2.46000004
   18.34388924  111.36399841    4.90999985    2.46000004
   18.34805679   -1.00000000    4.90999985    2.13000011
   18.35138893   -1.00000000    4.90999985    0.56999999
   18.35472298   -1.00000000    4.90999985    0.51999998
   18.35777855   -1.00000000    4.90999985    0.28000000
   18.36138916   -1.00000000    4.90999985    0.19000000
   18.36472321   -1.00000000    4.90999985    0.61000001
   18.36777878   -1.00000000    4.90999985    1.38000000
   18.37111092   -1.00000000    4.90999985    0.79000002
   18.37444496   -1.00000000    4.90999985    1.60000002
   18.37750053   -1.00000000    4.90999985    1.55999994
   18.38083267  211.55999756    4.90999985    1.61000001
   18.38694382  211.55999756    4.90999985    1.71000004
   18.39111137   -1.00000000    4.90999985    1.64999998
   18.39444351  106.60099792    4.90999985    1.60000002
   18.39777756   -1.00000000    4.90999985    1.60000002
   18.40083313   -1.00000000    4.90999985    1.44000006
   18.40416718   -1.00000000    4.90999985    1.46000004
   18.40749931   -1.00000000    4.90999985    1.48000002
   18.41055489   -1.00000000    4.90999985    1.51999998
   18.41388893   -1.00000000    4.90999985    1.34000003
   18.41722107   -1.00000000    4.90999985    1.33000004
   18.42027664   -1.00000000    4.90999985    1.01999998
   18.42361069   -1.00000000    4.90999985    1.05999994
   18.42972183   -1.00000000    4.90999985    1.14999998
   18.43388748   -1.00000000    4.90999985    1.14999998
   18.43694305   -1.00000000    4.90999985    1.19000006
   18.44027710   -1.00000000    4.90999985    1.30999994
   18.44361115   -1.00000000    4.90999985    1.23000002
   18.44666672   -1.00000000    4.90999985    0.76999998
   18.45000076   -1.00000000    4.90999985    0.13000000
   18.45333481   -1.00000000    4.90999985    0.07000000
   18.45639038   -1.00000000    4.90999985    0.07000000
   18.46000099   -1.00000000    4.90999985    0.09000000
   18.46333504   -1.00000000    4.90999985    0.11000000
   18.46638870   -1.00000000    4.90999985    0.23000000
   18.47666740   -1.00000000    4.90999985    1.34000003
   18.48000145   -1.00000000    4.90999985    1.25000000
   18.48305511   -1.00000000    4.90999985    0.51999998
   18.48638916   -1.00000000    4.90999985    0.41999999
   18.48944473   -1.00000000    4.90999985    0.11000000
   18.49305534   -1.00000000    4.90999985    0.07000000
   18.49638939   -1.00000000    4.90999985    0.13000000
   18.49944496   -1.00000000    4.90999985    0.61000001
   18.50277710   -1.00000000    4.90999985    0.79000002
   18.50611115   -1.00000000    4.90999985    1.33000004
   18.50916672   -1.00000000    4.90999985    1.16999996
   18.51944351   -1.00000000    4.90999985    0.47999999
   18.52277756   -1.00000000    4.90999985    0.86000001
   18.52611160   -1.00000000    4.90999985    1.03999996
   18.52944374   -1.00000000    4.90999985    0.95999998
   18.53249931   -1.00000000    4.90999985    1.01999998
   18.53583336   -1.00000000    4.90999985    0.80000001
   18.53916550   -1.00000000    4.90999985    0.67000002
   18.54222107   -1.00000000    4.90999985    1.00000000
   18.54555511   -1.00000000    4.90999985    1.21000004
   18.54888916   -1.00000000    4.90999985    1.28999996
   18.55194283   -1.00000000    4.90999985    1.13000000
   18.55833244   -1.00000000    4.90999985    1.46000004
   18.57666779   -1.00000000    4.90999985    0.25999999
   18.57972336   -1.00000000    4.90999985    0.89999998
   18.58305550   -1.00000000    4.90999985    1.05999994
   18.58638954   -1.00000000    4.90999985    0.73000002
   18.58944511   -1.00000000    4.90999985    0.83999997
   18.59277916   -1.00000000    4.90999985    1.05999994
   18.59611130   -1.00000000    4.90999985    0.95999998
   18.60527802   -1.00000000    4.90999985    0.67000002
   18.60861206   -1.00000000    4.90999985    0.55000001
   18.61194420   -1.00000000    4.90999985    0.31999999
   18.61499977   -1.00000000    4.90999985    0.25999999
   18.61833382   -1.00000000    4.90999985    0.25000000
   18.62138939   -1.00000000    4.90999985    0.19000000
   18.62472153   -1.00000000    4.90999985    0.03000000
   18.62833405   -1.00000000    4.90999985    0.05000000
   18.63166618   -1.00000000    4.90999985    0.11000000
   18.63500023   -1.00000000    4.90999985    0.13000000
   18.63805580   -1.00000000    4.90999985    0.09000000
   18.64833260   -1.00000000    4.90999985    0.05000000
   18.65138817   -1.00000000    4.90999985    0.07000000
   18.65472221   -1.00000000    4.90999985    0.13000000
   18.65805435   -1.00000000    4.90999985    0.30000001
   18.66166687   -1.00000000    4.90999985    0.31999999
   18.66472244   -1.00000000    4.90999985    0.30000001
   18.66805458   -1.00000000    4.90999985    0.41999999
   18.67111015   -1.00000000    4.90999985    0.17000000
   18.67444420   -1.00000000    4.90999985    0.05000000
   18.67777634   -1.00000000    4.90999985    0.03000000
   18.68083191   -1.00000000    4.90999985    0.01000000
   18.69111061   -1.00000000    3.28999996    0.01000000
   18.69472122   -1.00000000    4.90999985    0.01000000
   18.69777679   -1.00000000    4.90999985    0.01000000
   18.70111275   -1.00000000    4.90999985    0.03000000
   18.70416832   -1.00000000    4.90999985    0.19000000
   18.70750046   -1.00000000    4.90999985    0.28000000
   18.71083450   -1.00000000    4.90999985    0.36000001
   18.71389008   -1.00000000    4.90999985    0.36000001
   18.71722221   -1.00000000    4.90999985    0.20999999
   18.72055626   -1.00000000    4.90999985    0.11000000
   18.72361183   -1.00000000    4.90999985    0.15000001
   18.73388863   -1.00000000    4.90999985    0.44000000
   18.73722267   -1.00000000    4.90999985    0.47999999
   18.74027824   -1.00000000    4.90999985    0.41999999
   18.74361229   -1.00000000    4.90999985    0.20999999
   18.74694443   -1.00000000    4.90999985    0.25000000
   18.75000000   -1.00000000    4.90999985    0.20999999
   18.75333405   -1.00000000    4.90999985    0.25999999
   18.75638962   -1.00000000    4.90999985    0.25000000
   18.75972176   -1.00000000    4.90999985    0.11000000
   18.76333427   -1.00000000    4.90999985    0.05000000
   18.76666641   -1.00000000    4.90999985    0.11000000
   18.77666664   -1.00000000    4.90999985    0.09000000
   18.78000069   -1.00000000    4.90999985    0.13000000
   18.78333282   -1.00000000    4.90999985    0.15000001
   18.78638840   -1.00000000    4.90999985    0.38000000
   18.78972244   -1.00000000    4.90999985    0.36000001
   18.79277802   -1.00000000    4.90999985    0.05000000
   18.79638863   -1.00000000    4.90999985    0.05000000
   18.79972076   -1.00000000    4.90999985    0.17000000
   18.80277634   -1.00000000    4.90999985    0.19000000
   18.80611038   -1.00000000    4.90999985    0.23000000
