    HOUR (UT)   FLARE FACTOR    SKY TESTER    SUN TESTER
   12.31138897   -1.00000000   -1.00000000   -1.00000000
   12.35333347   -1.00000000    0.58999997    2.15000010
   12.35666752  159.82800293    0.61000001    2.15000010
   12.36000061  157.74299622    0.58999997    2.15000010
   12.36305618  130.01699829    0.58999997    2.15000010
   12.36638927  125.35900116    0.58999997    2.15000010
   12.37055588  125.35900116    0.58999997    2.15000010
   12.37472248  148.59899902    0.58999997    2.15000010
   12.37777805  154.62899780    0.58999997    2.17000008
   12.38111115  159.92900085    0.58999997    2.17000008
   12.38333321  141.13200378    0.61000001    2.17000008
   12.38472176  161.04899597    0.61000001    2.17000008
   12.38805580  138.43800354    0.58999997    2.17000008
   12.39138889  147.03599548    0.58999997    2.17000008
   12.39444447  156.40800476    0.58999997    2.19000006
   12.39777756  159.92700195    0.58999997    2.17000008
   12.40111065  152.98800659    0.58999997    2.19000006
   12.40416622  142.13499451    0.58999997    2.19000006
   12.40749931  159.53100586    0.58999997    2.17000008
   12.41333294  159.53100586    0.56999999    2.19000006
   12.41750050  186.60899353    0.56999999    2.19000006
   12.42055607  152.61999512    0.56999999    2.19000006
   12.42388916  159.01600647    0.56999999    2.19000006
   12.42722225  172.31599426    0.56999999    2.19000006
   12.43055630  139.03900146    0.56999999    2.19000006
   12.43361092  159.45500183    0.56999999    2.19000006
   12.43694496  166.50700378    0.58999997    2.21000004
   12.44027805  159.85200500    0.58999997    2.19000006
   12.44333363  161.08299255    0.56999999    2.19000006
   12.44666672  158.31799316    0.58999997    2.21000004
   12.44972229  163.86900330    0.58999997    2.21000004
   12.45027733  148.04400635    0.58999997    2.21000004
   12.45611095  148.04400635    0.56999999    2.21000004
   12.46027756  156.96299744    0.56999999    2.21000004
   12.46361065  145.28900146    0.56999999    2.21000004
   12.46666622  143.98800659    0.56999999    2.21000004
   12.46999931  144.44900513    0.56999999    2.21000004
   12.47333336  150.06399536    0.56999999    2.21000004
   12.47638798  137.60800171    0.55000001    2.23000002
   12.47972202  149.77400208    0.55000001    2.21000004
   12.48277760  149.07099915    0.55000001    2.23000002
   12.48361111  154.56500244    0.55000001    2.23000002
   12.48638916  154.36099243    0.55000001    2.21000004
   12.48972225  148.83299255    0.55000001    2.21000004
   12.49277782  149.50700378    0.55000001    2.23000002
   12.49888897  149.50700378    0.55000001    2.23000002
   12.50305557  157.00399780    0.55000001    2.23000002
   12.50638866  141.83500671    0.55000001    2.23000002
   12.50944424  159.70700073    0.55000001    2.23000002
   12.51277733  154.43299866    0.55000001    2.23000002
   12.51611137  162.51699829    0.55000001    2.23000002
   12.51694393  160.58099365    0.55000001    2.23000002
   12.51972198  167.04100037    0.55000001    2.23000002
   12.52277756  154.14199829    0.55000001    2.23000002
   12.52611065  161.04100037    0.52999997    2.23000002
   12.52944374  150.81100464    0.52999997    2.23000002
   12.53249931  157.85899353    0.52999997    2.25000000
   12.53583336  162.73899841    0.52999997    2.25000000
   12.54194450  162.73899841    0.52999997    2.25000000
   12.54611111  159.62500000    0.52999997    2.25000000
   12.54916668  172.21499634    0.52999997    2.25000000
   12.55027771  152.12899780    0.52999997    2.25000000
   12.55277824  147.88099670    0.52999997    2.25000000
   12.55611134  144.66700745    0.52999997    2.25000000
   12.55916691  154.96699524    0.52999997    2.26999998
   12.56250000  153.59100342    0.52999997    2.26999998
   12.56555557  163.73800659    0.52999997    2.25000000
   12.56888866  161.19400024    0.52999997    2.26999998
   12.57222176  151.82400513    0.51999998    2.25000000
   12.57527733  145.55799866    0.51999998    2.26999998
   12.57861137  148.62800598    0.52999997    2.26999998
   12.58472157  148.62800598    0.51999998    2.26999998
   12.58888817  161.63600159    0.51999998    2.26999998
   12.59194374  161.21600342    0.51999998    2.26999998
   12.59527779  144.33900452    0.51999998    2.26999998
   12.59861088  151.10400391    0.51999998    2.26999998
   12.60166740  160.22599792    0.51999998    2.26999998
   12.60500050  140.55000305    0.51999998    2.26999998
   12.60805607  153.14700317    0.50000000    2.28999996
   12.61138916  154.72599792    0.50000000    2.28999996
   12.61472225  149.81199646    0.50000000    2.28999996
   12.61694431  160.01100159    0.50000000    2.26999998
   12.61833382  159.15199280    0.50000000    2.26999998
   12.62166691  150.80299377    0.50000000    2.26999998
   12.62750053  150.80299377    0.50000000    2.28999996
   12.63166714  170.23199463    0.50000000    2.28999996
   12.63500023  148.82800293    0.50000000    2.28999996
   12.63833332  148.27099609    0.50000000    2.28999996
   12.64138889  180.93600464    0.50000000    2.28999996
   12.64472198  174.64799500    0.50000000    2.28999996
   12.64805508  148.11199951    0.50000000    2.28999996
   12.65027714  152.36099243    0.50000000    2.28999996
   12.65166664  140.11900330    0.50000000    2.28999996
   12.65499973  149.49400330    0.50000000    2.28999996
   12.65805531  157.35299683    0.50000000    2.28999996
   12.66138840  142.13600159    0.50000000    2.28999996
   12.66444397  140.48599243    0.47999999    2.30999994
   12.67027855  140.48599243    0.47999999    2.30999994
   12.67444515  144.15100098    0.47999999    2.30999994
   12.67777824  149.84199524    0.47999999    2.30999994
   12.68083382  145.83700562    0.47999999    2.30999994
   12.68361092  143.37199402    0.47999999    2.30999994
   12.68444443  178.86399841    0.47999999    2.30999994
   12.68777752  168.29200745    0.47999999    2.30999994
   12.69083309  145.96899414    0.47999999    2.30999994
   12.69416714  128.85099792    0.47999999    2.30999994
   12.69722271  130.49899292    0.47999999    2.30999994
   12.70055580  163.85299683    0.47999999    2.30999994
   12.70388889  153.83900452    0.47999999    2.30999994
   12.70694447  151.18600464    0.47999999    2.30999994
   12.71333313  151.18600464    0.47999999    2.30999994
   12.71722221  143.12800598    0.47999999    2.30999994
   12.72055531  158.16900635    0.47999999    2.30999994
   12.72388840  151.93099976    0.47999999    2.32999992
   12.72694397  155.82099915    0.47999999    2.32999992
   12.73027706  140.93899536    0.47999999    2.32999992
   12.73361111  140.26300049    0.47999999    2.32999992
   12.73666668  144.48100281    0.47999999    2.32999992
   12.74000072  146.29899597    0.47999999    2.32999992
   12.74305534  131.00599670    0.50000000    2.32999992
   12.74638939  145.97799683    0.47999999    2.32999992
   12.74972248  130.79600525    0.50000000    2.32999992
   12.75027752  134.45899963    0.50000000    2.32999992
   12.75611115  134.45899963    0.47999999    2.32999992
   12.76027775  138.70100403    0.47999999    2.32999992
   12.76361084  134.23300171    0.47999999    2.32999992
   12.76666641  147.00000000    0.47999999    2.34999990
   12.76999950  141.63200378    0.47999999    2.32999992
   12.77333355  142.91900635    0.47999999    2.32999992
   12.77638817  134.91799927    0.47999999    2.32999992
   12.77972221  132.57099915    0.47999999    2.34999990
   12.78305531  130.61399841    0.47999999    2.32999992
   12.78361130  129.28500366    0.47999999    2.32999992
   12.78666687  126.29900360    0.47999999    2.32999992
   12.79000092  138.56599426    0.47999999    2.34999990
   12.79305553  133.27200317    0.47999999    2.34999990
   12.79888916  133.27200317    0.47999999    2.34999990
   12.80305576  129.11599731    0.47999999    2.34999990
   12.80638885  140.96499634    0.47999999    2.34999990
   12.80944443  135.60400391    0.47999999    2.34999990
   12.81277752  123.78900146    0.47999999    2.34999990
   12.81611156  137.77999878    0.50000000    2.34999990
   12.81694412  141.35699463    0.50000000    2.34999990
   12.81972218  136.64799500    0.50000000    2.34999990
   12.82305527  143.39300537    0.50000000    2.34999990
   12.82611084  138.48899841    0.50000000    2.34999990
   12.82944393  129.79899597    0.50000000    2.34999990
   12.83277798  132.50399780    0.47999999    2.34999990
   12.83583260  144.53500366    0.47999999    2.34999990
   12.84166622  144.53500366    0.47999999    2.36999989
   12.84583282  142.71800232    0.47999999    2.34999990
   12.84916592  148.37800598    0.47999999    2.34999990
   12.85055637  139.78999329    0.47999999    2.36999989
   12.85277843  132.79499817    0.47999999    2.34999990
   12.85611153  144.28500366    0.47999999    2.34999990
   12.85916710  138.10099792    0.47999999    2.36999989
   12.86250019  143.14199829    0.47999999    2.36999989
   12.86583328  139.24200439    0.47999999    2.36999989
   12.86888885  145.84800720    0.47999999    2.36999989
   12.87222195  140.60299683    0.47999999    2.39000010
   12.87555599  135.90499878    0.47999999    2.39000010
   12.87861156  145.66299438    0.46000001    2.36999989
   12.88444424  145.66299438    0.46000001    2.39000010
   12.88861084  127.24500275    0.46000001    2.39000010
   12.89194393  137.80900574    0.46000001    2.39000010
   12.89527798  134.12600708    0.46000001    2.36999989
   12.89833355  142.83700562    0.46000001    2.39000010
   12.90166664  147.23300171    0.46000001    2.39000010
   12.90472221  136.34300232    0.46000001    2.39000010
   12.90805531  136.09800720    0.46000001    2.39000010
   12.91138840  137.18099976    0.46000001    2.39000010
   12.91472149  138.46499634    0.46000001    2.39000010
   12.91694450  140.28599548    0.46000001    2.39000010
   12.91833401  141.44500732    0.46000001    2.39000010
   12.92166710  144.31100464    0.46000001    2.39000010
   12.92750072  144.31100464    0.46000001    2.39000010
   12.93166733  143.89599609    0.47999999    2.39000010
   12.93472195  155.78500366    0.47999999    2.39000010
   12.93805599  146.05799866    0.47999999    2.39000010
   12.94111156  132.36599731    0.47999999    2.39000010
   12.94444466  155.34300232    0.46000001    2.39000010
   12.94777775  155.10000610    0.47999999    2.39000010
   12.95027733  152.47700500    0.47999999    2.39000010
   12.95138836  147.58099365    0.47999999    2.39000010
   12.95472240  159.16400146    0.46000001    2.39000010
   12.95777798  160.93899536    0.46000001    2.39000010
   12.96111107  146.69200134    0.46000001    2.39000010
   12.96444416  159.40299988    0.47999999    2.39000010
   12.97027779  159.40299988    0.46000001    2.40000010
   12.97444439  156.96299744    0.46000001    2.39000010
   12.97777748  153.46699524    0.46000001    2.40000010
   12.98083305  151.78599548    0.46000001    2.39000010
   12.98361111  144.75799561    0.46000001    2.39000010
   12.98444462  160.03199768    0.46000001    2.39000010
   12.98777771  163.69999695    0.46000001    2.40000010
   12.99083328  163.30799866    0.46000001    2.40000010
   12.99416733  150.47700500    0.46000001    2.40000010
   12.99750042  157.86099243    0.44000000    2.40000010
   13.00055599  154.16499329    0.46000001    2.40000010
   13.00388908  162.47799683    0.46000001    2.40000010
   13.00694466  141.12300110    0.46000001    2.40000010
   13.01305580  141.12300110    0.44000000    2.40000010
   13.01722240  160.03100586    0.44000000    2.40000010
   13.02055550  169.67700195    0.44000000    2.40000010
   13.02361107  148.69700623    0.44000000    2.40000010
   13.02694416  155.45399475    0.44000000    2.40000010
   13.03027725  152.27200317    0.44000000    2.40000010
   13.03333378  136.34700012    0.46000001    2.40000010
   13.03666687  144.69299316    0.46000001    2.42000008
   13.04000092  145.60099792    0.46000001    2.40000010
   13.04305553  133.14300537    0.46000001    2.40000010
   13.04638958  138.16099548    0.46000001    2.42000008
   13.04944515  144.31599426    0.44000000    2.42000008
   13.05055618  145.35699463    0.44000000    2.42000008
   13.05611134  145.35699463    0.44000000    2.42000008
   13.06000042  134.89100647    0.44000000    2.42000008
   13.06333351  138.32299805    0.44000000    2.42000008
   13.06666660  132.32800293    0.44000000    2.42000008
   13.06972218  128.33500671    0.44000000    2.42000008
   13.07305527  140.42999268    0.44000000    2.40000010
   13.07638836  144.72399902    0.44000000    2.42000008
   13.07944393  154.80000305    0.44000000    2.42000008
   13.08277798  142.74400330    0.44000000    2.42000008
   13.08388901  139.61099243    0.44000000    2.42000008
   13.08638859  139.80599976    0.44000000    2.42000008
   13.08972168  156.17199707    0.44000000    2.42000008
   13.09277725  155.04499817    0.44000000    2.42000008
   13.09888840  155.04499817    0.46000001    2.42000008
   13.10305595  126.09799957    0.46000001    2.42000008
   13.10611153  129.50999451    0.44000000    2.42000008
   13.10944462  140.51100159    0.44000000    2.42000008
   13.11277771  146.33700562    0.44000000    2.42000008
   13.11611176  140.41499329    0.44000000    2.42000008
   13.11694431  141.45199585    0.44000000    2.42000008
   13.11944485  166.39100647    0.46000001    2.42000008
   13.12277794  148.10200500    0.46000001    2.42000008
   13.12583351  159.13400269    0.46000001    2.42000008
   13.12916660  147.11199951    0.46000001    2.44000006
   13.13249969  141.71299744    0.46000001    2.42000008
   13.13555527  141.91700745    0.46000001    2.44000006
   13.14166641  141.91700745    0.44000000    2.44000006
   13.14583302  139.30599976    0.44000000    2.44000006
   13.14888859  142.19200134    0.44000000    2.44000006
   13.15055561  158.48300171    0.44000000    2.44000006
   13.15249920  171.16200256    0.44000000    2.44000006
   13.15583324  157.62199402    0.44000000    2.44000006
   13.15888882  141.19799805    0.44000000    2.44000006
   13.16222191  153.54899597    0.44000000    2.44000006
   13.16555500  157.40400696    0.44000000    2.44000006
   13.16861153  142.42199707    0.44000000    2.44000006
   13.17194462  139.47099304    0.44000000    2.44000006
   13.17527771  145.10000610    0.44000000    2.44000006
   13.17833328  137.82499695    0.44000000    2.44000006
   13.18444443  137.82499695    0.44000000    2.44000006
   13.18861103  131.99400330    0.44000000    2.44000006
   13.19194412  136.39700317    0.41999999    2.44000006
   13.19499969  145.24699402    0.44000000    2.44000006
   13.19833374  129.67700195    0.44000000    2.44000006
   13.20166683  134.33200073    0.44000000    2.44000006
   13.20472240  135.88400269    0.44000000    2.44000006
   13.20805550  141.00900269    0.44000000    2.44000006
   13.21138859  141.11300659    0.44000000    2.44000006
   13.21444416  134.91200256    0.44000000    2.44000006
   13.21722221  139.90299988    0.44000000    2.44000006
   13.21805477  128.19500732    0.44000000    2.44000006
   13.22138882  129.28799438    0.44000000    2.44000006
   13.22722149  129.28799438    0.41999999    2.44000006
   13.23138809  138.15600586    0.41999999    2.46000004
   13.23472214  145.99299622    0.41999999    2.46000004
   13.23805618  144.05000305    0.41999999    2.46000004
   13.24111176  166.92599487    0.41999999    2.46000004
   13.24444485  163.77999878    0.41999999    2.46000004
   13.24777794  142.26800537    0.41999999    2.46000004
   13.25055599  139.59500122    0.41999999    2.46000004
   13.25111103  148.79400635    0.41999999    2.46000004
   13.25444412  155.50900269    0.41999999    2.46000004
   13.25749969  162.33299255    0.41999999    2.46000004
   13.26083374  161.76300049    0.40000001    2.46000004
   13.26416683  159.92300415    0.40000001    2.46000004
   13.27027798  159.92300415    0.41999999    2.46000004
   13.27444458  162.81700134    0.41999999    2.46000004
   13.27750015  164.77400208    0.41999999    2.46000004
   13.28083324  159.18600464    0.41999999    2.46000004
   13.28388977  162.98199463    0.41999999    2.46000004
   13.28444481  142.54100037    0.41999999    2.46000004
   13.28777790  140.02000427    0.40000001    2.46000004
   13.29083347  126.24500275    0.40000001    2.46000004
   13.29416752  146.28100586    0.40000001    2.46000004
   13.29750061  149.06799316    0.40000001    2.46000004
   13.30055618  152.07400513    0.40000001    2.48000002
   13.30388927  134.66600037    0.40000001    2.46000004
   13.30722237  135.60099792    0.40000001    2.46000004
   13.31305599  135.60099792    0.40000001    2.48000002
   13.31722260  141.56399536    0.40000001    2.48000002
   13.32027817  127.05400085    0.40000001    2.48000002
   13.32361126  133.08399963    0.40000001    2.48000002
   13.32694435  131.26400757    0.40000001    2.48000002
   13.32999992  133.22599792    0.40000001    2.48000002
   13.33333302  136.01499939    0.40000001    2.48000002
   13.33666611  126.94000244    0.40000001    2.48000002
   13.33972168  127.67900085    0.40000001    2.48000002
   13.34305477  125.67800140    0.40000001    2.48000002
   13.34611034  132.59700012    0.40000001    2.48000002
   13.34944439  127.43900299    0.40000001    2.48000002
   13.35055637  127.75299835    0.40000001    2.48000002
   13.37111092  127.75299835    0.41999999    2.48000002
   13.37527752  131.43099976    0.40000001    2.48000002
   13.37861156  138.39399719    0.40000001    2.48000002
   13.38166714  128.58799744    0.40000001    2.48000002
   13.38388920  130.51400757    0.40000001    2.48000002
   13.38527775  130.50799561    0.40000001    2.48000002
   13.38861084  142.90899658    0.40000001    2.48000002
   13.39194393  161.82699585    0.40000001    2.48000002
   13.39499950  182.59800720    0.41999999    2.48000002
   13.39833355  168.13699341    0.41999999    2.48000002
   13.40138817  185.60299683    0.41999999    2.48000002
   13.40472221  169.84899902    0.41999999    2.48000002
   13.40805531  208.02699280    0.41999999    2.48000002
   13.41388893  208.02699280    0.41999999    2.50000000
   13.41805553  179.72599792    0.40000001    2.50000000
   13.42166710  164.31799316    0.41999999    2.50000000
   13.42500019  174.94099426    0.41999999    2.50000000
   13.42805576  160.01400757    0.41999999    2.50000000
   13.43138885  175.13499451    0.41999999    2.50000000
   13.43472195  168.05599976    0.40000001    2.50000000
   13.43777752  189.60200500    0.40000001    2.50000000
   13.44111156  157.67900085    0.40000001    2.50000000
   13.44416714  164.61599731    0.40000001    2.50000000
   13.44750023  147.24800110    0.38000000    2.50000000
   13.45083332  171.23899841    0.38000000    2.50000000
   13.45111084  185.22900391    0.38000000    2.50000000
   13.45722198  185.22900391    0.38000000    2.50000000
   13.46138859  148.20399475    0.38000000    2.50000000
   13.46444416  158.36700439    0.38000000    2.50000000
   13.46777725  160.78100586    0.38000000    2.50000000
   13.47111034  163.32000732    0.38000000    2.50000000
   13.47416592  174.24499512    0.38000000    2.50000000
   13.47749996  160.69799805    0.36000001    2.50000000
   13.48055553  153.45799255    0.36000001    2.50000000
   13.48388958  161.24099731    0.36000001    2.50000000
   13.48444462  167.98399353    0.36000001    2.50000000
   13.48750019  139.95599365    0.36000001    2.50000000
   13.49083328  159.77900696    0.36000001    2.50000000
   13.49388885  163.47099304    0.36000001    2.50000000
   13.50000000  163.47099304    0.36000001    2.50000000
   13.50416660  141.79699707    0.36000001    2.50000000
   13.50722218  159.36700439    0.36000001    2.50000000
   13.51055527  160.14199829    0.36000001    2.50000000
   13.51388931  162.50999451    0.38000000    2.50000000
   13.51694393  149.44400024    0.38000000    2.51999998
   13.51805496  158.89300537    0.38000000    2.51999998
   13.52055550  138.64500427    0.38000000    2.51999998
   13.52388859  142.57899475    0.38000000    2.51999998
   13.52694416  147.47200012    0.38000000    2.51999998
   13.53027725  141.77999878    0.38000000    2.51999998
   13.53361130  137.41799927    0.38000000    2.51999998
   13.53694534  138.92199707    0.38000000    2.50000000
   13.54277802  138.92199707    0.38000000    2.51999998
   13.54694462  151.20799255    0.38000000    2.51999998
   13.55027771  149.09399414    0.38000000    2.51999998
   13.55138874  145.65499878    0.38000000    2.51999998
   13.55388927  140.69700623    0.38000000    2.51999998
   13.55722237  133.51400757    0.38000000    2.51999998
   13.56027794  129.88099670    0.38000000    2.51999998
   13.56361103  131.64799500    0.38000000    2.51999998
   13.56694412  137.81500244    0.38000000    2.51999998
   13.56999969  139.54200745    0.38000000    2.51999998
   13.57333374  146.90499878    0.38000000    2.51999998
   13.57638836  138.70300293    0.38000000    2.51999998
   13.57972240  145.63800049    0.38000000    2.51999998
   13.58583260  145.63800049    0.38000000    2.51999998
   13.58972168  137.42999268    0.38000000    2.51999998
   13.59305477  139.08599854    0.38000000    2.51999998
   13.59638882  149.07000732    0.38000000    2.51999998
   13.59944439  135.13800049    0.38000000    2.51999998
   13.60277843  153.58799744    0.38000000    2.53999996
   13.60583401  151.86000061    0.38000000    2.53999996
   13.60916710  139.27099609    0.38000000    2.53999996
   13.61250019  136.38400269    0.38000000    2.53999996
   13.61555576  138.76699829    0.38000000    2.53999996
   13.61805534  133.65899658    0.38000000    2.53999996
   13.61916637  133.27699280    0.38000000    2.53999996
   13.62250042  127.96199799    0.38000000    2.53999996
   13.62861156  127.96199799    0.38000000    2.51999998
   13.63249969  141.78100586    0.38000000    2.53999996
   13.63583279  129.66099548    0.38000000    2.53999996
   13.63916683  128.21699524    0.38000000    2.53999996
   13.64222240  122.80400085    0.38000000    2.53999996
   13.64555550  124.49400330    0.38000000    2.53999996
   13.64888859  120.55100250    0.38000000    2.53999996
   13.65138817  127.69400024    0.38000000    2.53999996
   13.65249920  134.60400391    0.38000000    2.53999996
   13.65555477  125.26399994    0.36000001    2.53999996
   13.65888882  122.29299927    0.36000001    2.53999996
   13.66222191  128.91799927    0.36000001    2.53999996
   13.66527748  132.89700317    0.36000001    2.53999996
   13.67138958  132.89700317    0.34000000    2.53999996
   13.67555618  127.63200378    0.34000000    2.53999996
   13.67888927  132.22300720    0.34000000    2.53999996
   13.68194485  132.63900757    0.34000000    2.53999996
   13.68472195  129.25500488    0.34000000    2.53999996
   13.68555546  129.01300049    0.34000000    2.53999996
   13.68888855  133.73199463    0.36000001    2.53999996
   13.69194412  126.87599945    0.36000001    2.53999996
   13.69527817  132.99099731    0.36000001    2.53999996
   13.69861126  134.92199707    0.36000001    2.53999996
   13.70166683  134.47999573    0.36000001    2.53999996
   13.70499992  133.15899658    0.36000001    2.53999996
   13.70833302  131.67500305    0.36000001    2.53999996
   13.71416664  131.67500305    0.36000001    2.53999996
   13.71833324  136.48399353    0.36000001    2.53999996
   13.72166634  133.99600220    0.36000001    2.53999996
   13.72499943  126.39900208    0.36000001    2.55999994
   13.72805500  126.51000214    0.36000001    2.53999996
   13.73138809  122.29699707    0.36000001    2.53999996
   13.73444462  121.63999939    0.36000001    2.53999996
   13.73777771  127.47699738    0.36000001    2.53999996
   13.74111176  123.55899811    0.36000001    2.53999996
   13.74416733  120.86499786    0.36000001    2.53999996
   13.74750042  127.76599884    0.34000000    2.53999996
   13.75055599  124.34700012    0.34000000    2.55999994
   13.75138855  135.23899841    0.34000000    2.55999994
   13.75694466  135.23899841    0.34000000    2.53999996
   13.76111126  133.46499634    0.34000000    2.53999996
   13.76444435  127.81900024    0.34000000    2.53999996
   13.76749992  127.32800293    0.34000000    2.53999996
   13.77083302  131.10000610    0.34000000    2.55999994
   13.77416611  126.17600250    0.34000000    2.55999994
   13.77722168  130.25000000    0.34000000    2.55999994
   13.78083324  131.00500488    0.36000001    2.55999994
   13.78388977  132.80599976    0.36000001    2.55999994
   13.78472233  137.86999512    0.36000001    2.55999994
   13.78750038  141.10600281    0.34000000    2.55999994
   13.79083347  133.69599915    0.36000001    2.55999994
   13.79388905  134.77400208    0.36000001    2.55999994
   13.80000019  134.77400208    0.36000001    2.55999994
   13.80416679  133.77799988    0.36000001    2.55999994
   13.80722237  128.96000671    0.36000001    2.55999994
   13.81055546  128.05599976    0.36000001    2.55999994
   13.81361103  128.54899597    0.36000001    2.55999994
   13.81694412  130.37800598    0.36000001    2.55999994
   13.81805515  129.92799377    0.36000001    2.55999994
   13.82055569  118.09200287    0.36000001    2.55999994
   13.82388878  135.60699463    0.36000001    2.55999994
   13.82722187  134.91000366    0.36000001    2.55999994
   13.83027744  133.03199768    0.36000001    2.55999994
   13.83361053  122.76599884    0.36000001    2.55999994
   13.83666611  116.30000305    0.36000001    2.55999994
   13.84277725  116.30000305    0.36000001    2.55999994
   13.84694386  121.76599884    0.34000000    2.55999994
   13.85000038  130.23399353    0.34000000    2.55999994
   13.85138893  136.46400452    0.34000000    2.55999994
   13.85361195  133.25599670    0.34000000    2.57999992
   13.85694504  129.96800232    0.34000000    2.55999994
   13.86000061  134.15299988    0.34000000    2.55999994
   13.86333370  130.97500610    0.34000000    2.55999994
   13.86666679  125.01100159    0.34000000    2.55999994
   13.86972237  131.87100220    0.34000000    2.57999992
   13.87305546  125.80400085    0.34000000    2.57999992
   13.87638855  130.84899902    0.38000000    2.55999994
   13.87944412  132.75399780    0.40000001    2.55999994
   13.88555527  132.75399780    0.41999999    2.55999994
   13.88972187  131.15400696    0.44000000    2.57999992
   13.89305496  127.97399902    0.46000001    2.55999994
   13.89611053  134.60200500    0.50000000    2.57999992
   13.89944458  132.27799988    0.50000000    2.57999992
   13.90277767  125.20500183    0.55000001    2.57999992
   13.90583324  134.38800049    0.55000001    2.57999992
   13.90916634  134.71600342    0.52999997    2.55999994
   13.91249943  115.53199768    0.55000001    2.57999992
   13.91555500  120.50800323    0.58999997    2.57999992
   13.91805553  127.46600342    0.58999997    2.57999992
   13.91916656   -1.00000000    0.64999998    2.55999994
   13.92250061   -1.00000000    0.69000000    2.57999992
   13.92861176   -1.00000000    0.70999998    2.55999994
   13.93249989   -1.00000000    0.75000000    2.57999992
   13.93583298   -1.00000000    0.75000000    2.57999992
   13.93916702  140.86799622    0.75000000    2.57999992
   13.94222260  131.63299561    0.76999998    2.55999994
   13.94555569  127.54599762    0.79000002    2.55999994
   13.94861126  131.70700073    0.79000002    2.55999994
   13.95138836  128.75199890    0.89999998    2.57999992
   13.95222187  135.11799622    0.89999998    2.57999992
   13.95555496  126.96199799    1.03999996    2.55999994
   13.95888901  138.78100586    1.09000003    2.55999994
   13.96194458  135.64700317    1.25000000    2.55999994
   13.96527767  132.14999390    1.33000004    2.55999994
   13.97138882  132.14999390    1.30999994    2.55999994
   13.97555542  132.39500427    1.26999998    2.55999994
   13.97861099  137.42700195    1.28999996    2.57999992
   13.98194408  130.19299316    1.36000001    2.55999994
   13.98472214  124.31099701    1.39999998    2.55999994
   13.98555565  125.13200378    1.39999998    2.55999994
   13.98888874  125.76000214    1.46000004    2.57999992
   13.99222279  112.03399658    1.51999998    2.55999994
   13.99527836  125.92099762    1.58000004    2.57999992
   13.99861145  121.39600372    1.61000001    2.57999992
   14.00166702  123.59200287    1.61000001    2.57999992
   14.00500011  120.93699646    1.75000000    2.57999992
   14.00833321  121.21600342    1.75000000    2.55999994
   14.01416683  121.21600342    1.76999998    2.57999992
   14.01833344  123.98799896    1.75000000    2.57999992
   14.02138901  126.34700012    1.69000006    2.57999992
   14.02472210  127.96800232    1.63000000    2.57999992
   14.02805519  129.01199341    1.51999998    2.57999992
   14.03111076  122.73000336    1.38000000    2.55999994
   14.03444481  133.37899780    1.19000006    2.57999992
   14.03777790  126.85099792    1.09000003    2.57999992
   14.04083347  135.52499390    1.09000003    2.57999992
   14.04416752  133.93899536    1.09000003    2.57999992
   14.04750061  135.00100708    1.07000005    2.57999992
   14.05055618  133.41700745    1.01999998    2.57999992
   14.05138874  130.75199890    1.01999998    2.57999992
   14.05694485  130.75199890    0.95999998    2.57999992
   14.06111145  129.28500366    0.86000001    2.57999992
   14.06444454  145.89599609    0.79000002    2.57999992
   14.06750011  150.17300415    0.75000000    2.59999990
   14.07083321  160.51699829    0.75000000    2.59999990
   14.07416630  150.35499573    0.69000000    2.57999992
   14.07722187  130.14900208    0.69000000    2.59999990
   14.08055592  137.99200439    0.67000002    2.59999990
   14.08388901  140.72599792    0.67000002    2.57999992
   14.08472157  143.09500122    0.67000002    2.57999992
   14.08722210  142.20899963    0.69000000    2.57999992
   14.09055519  138.73500061    0.67000002    2.57999992
   14.09388828  141.10400391    0.63000000    2.59999990
   14.09972191  141.10400391    0.61000001    2.59999990
   14.10388947  130.58099365    0.56999999    2.59999990
   14.10722256  138.29200745    0.58999997    2.59999990
   14.11055565  138.64399719    0.61000001    2.57999992
   14.11361122  135.25999451    0.58999997    2.59999990
   14.11694431  137.27200317    0.55000001    2.57999992
   14.11805534  132.12800598    0.55000001    2.57999992
   14.12027836  131.35400391    0.50000000    2.59999990
   14.12361145  135.64300537    0.51999998    2.57999992
   14.12694454  136.69700623    0.51999998    2.57999992
   14.13000011  123.53099823    0.51999998    2.59999990
   14.13333321  123.15200043    0.44000000    2.59999990
   14.13638878  117.28299713    0.40000001    2.59999990
   14.14277744  117.28299713    0.41999999    2.59999990
   14.14694405  125.78900146    0.38000000    2.59999990
   14.14999962  131.53999329    0.38000000    2.59999990
   14.15138817  126.26300049    0.38000000    2.59999990
   14.15361118  140.26400757    0.38000000    2.59999990
   14.15694427  128.79200745    0.38000000    2.59999990
   14.16027737  134.55499268    0.38000000    2.59999990
   14.16361046  130.25700378    0.38000000    2.59999990
   14.16666698  121.43800354    0.38000000    2.59999990
   14.17000008  124.87699890    0.38000000    2.59999990
   14.17305565  127.69200134    0.38000000    2.59999990
   14.17638874  120.24600220    0.38000000    2.61999989
   14.17972279  124.54199982    0.40000001    2.59999990
   14.18555546  124.54199982    0.40000001    2.61999989
   14.18972206  114.95099640    0.41999999    2.59999990
   14.19277763  127.35800171    0.46000001    2.59999990
   14.19611073  131.83799744    0.50000000    2.59999990
   14.19944477  133.74899292    0.56999999    2.59999990
   14.20249939  120.89900208    0.61000001    2.59999990
   14.20583344  131.16900635    0.69000000    2.59999990
   14.20916653  130.43699646    0.70999998    2.59999990
   14.21222210  120.73899841    0.70999998    2.59999990
   14.21555519  128.45199585    0.67000002    2.59999990
   14.21805477  119.35800171    0.67000002    2.59999990
   14.21888828  134.18400574    0.67000002    2.61999989
   14.22222137  130.74400330    0.70999998    2.59999990
   14.22833252  130.74400330    0.61000001    2.59999990
   14.23249912  129.51699829    0.50000000    2.59999990
   14.23583317  119.21499634    0.46000001    2.61999989
   14.23916721  124.39499664    0.52999997    2.59999990
   14.24222279  133.16499329    0.47999999    2.59999990
   14.24555588  118.99800110    0.47999999    2.61999989
   14.24888897  121.42400360    0.50000000    2.59999990
   14.25138855  125.58599854    0.50000000    2.59999990
   14.25222206  123.23300171    0.51999998    2.59999990
   14.25555515  128.21099854    0.55000001    2.59999990
   14.25888920  122.05799866    0.55000001    2.59999990
   14.26194477  122.61199951    0.51999998    2.59999990
   14.26527786  121.96700287    0.52999997    2.59999990
   14.27111053  121.96700287    0.47999999    2.59999990
   14.27527714  114.18000031    0.46000001    2.61999989
   14.27861118  123.70700073    0.47999999    2.61999989
   14.28194427  114.54799652    0.40000001    2.61999989
   14.28472233  114.58899689    0.38000000    2.61999989
   14.28555584  131.09500122    0.38000000    2.61999989
   14.28861141  131.91799927    0.40000001    2.59999990
   14.29194450  123.09700012    0.38000000    2.61999989
   14.29500008  120.45300293    0.40000001    2.59999990
   14.29833412  126.93099976    0.40000001    2.59999990
   14.30166721  116.38999939    0.41999999    2.61999989
   14.30472279  109.53700256    0.38000000    2.59999990
   14.30805588  110.96700287    0.31999999    2.59999990
   14.31416702  110.96700287    0.38000000    2.61999989
   14.31833363  121.04499817    0.38000000    2.61999989
   14.32138920  128.19900513    0.38000000    2.61999989
   14.32472229  118.37300110    0.36000001    2.61999989
   14.32777786  115.26799774    0.36000001    2.61999989
   14.33111095  125.06999969    0.36000001    2.61999989
   14.33444405  113.35299683    0.36000001    2.61999989
   14.33749962  126.43000031    0.36000001    2.61999989
   14.34083271  122.59899902    0.34000000    2.61999989
   14.34416676  132.72399902    0.31999999    2.61999989
   14.34722233  117.47399902    0.31999999    2.61999989
   14.35055637  117.59799957    0.31999999    2.61999989
   14.35138893  122.26699829    0.30000001    2.61999989
   14.35694504  122.26699829    0.30000001    2.61999989
   14.36111164  122.71800232    0.30000001    2.61999989
   14.36416721  117.62699890    0.30000001    2.61999989
   14.36750031  122.51399994    0.28000000    2.61999989
   14.38500023  128.71800232    0.30000001    2.61999989
   14.38749981  128.02799988    0.31999999    2.61999989
   14.39055538  113.50299835    0.31999999    2.61999989
   14.39388847  123.83300018    0.30000001    2.61999989
   14.39999962  123.83300018    0.30000001    2.61999989
   14.40388870  117.42199707    0.31999999    2.61999989
   14.40722179  124.76499939    0.30000001    2.61999989
   14.41055489  132.17199707    0.30000001    2.61999989
   14.41361046  111.33599854    0.31999999    2.61999989
   14.41694450  130.03599548    0.31999999    2.61999989
   14.41833401  128.91200256    0.31999999    2.61999989
   14.42083359  123.41899872    0.31999999    2.61999989
   14.42388916  125.29499817    0.31999999    2.61999989
   14.42722225  115.62300110    0.31999999    2.61999989
   14.43027782  128.21899414    0.31999999    2.61999989
   14.43361092  117.00000000    0.31999999    2.61999989
   14.43694496  116.99099731    0.34000000    2.61999989
   14.44277763  116.99099731    0.36000001    2.64000010
   14.44694424  119.01100159    0.36000001    2.61999989
   14.45027733  114.56999969    0.36000001    2.64000010
   14.45166683  130.95599365    0.36000001    2.64000010
   14.45388889  120.89099884    0.36000001    2.64000010
   14.45694447  126.58300018    0.36000001    2.64000010
   14.46027756  128.11900330    0.36000001    2.64000010
   14.46333313  129.03300476    0.36000001    2.61999989
   14.46666622  115.81500244    0.36000001    2.64000010
   14.46999931  119.70200348    0.36000001    2.64000010
   14.47305489  131.11300659    0.36000001    2.61999989
   14.47638798  127.97599792    0.34000000    2.61999989
   14.47972202  141.51300049    0.34000000    2.61999989
   14.48555565  141.51300049    0.34000000    2.64000010
   14.48972225  125.28900146    0.36000001    2.61999989
   14.49305534  130.50700378    0.36000001    2.64000010
   14.49611092  135.38699341    0.38000000    2.64000010
   14.49944496  132.68200684    0.38000000    2.64000010
   14.50249958  124.05599976    0.40000001    2.61999989
   14.50583363  122.21800232    0.40000001    2.61999989
   14.50916672  122.68099976    0.40000001    2.64000010
   14.51222229  109.82900238    0.41999999    2.64000010
   14.51555538  132.21800232    0.41999999    2.64000010
   14.51833344  137.12800598    0.40000001    2.61999989
   14.51916599  139.83399963    0.40000001    2.61999989
   14.52222157  134.10699463    0.40000001    2.64000010
   14.52833271  134.10699463    0.41999999    2.64000010
   14.53249931  126.79399872    0.41999999    2.64000010
   14.53583336  124.15000153    0.44000000    2.61999989
   14.53888893  124.08100128    0.44000000    2.61999989
   14.54222298  114.17400360    0.41999999    2.61999989
   14.54555607  135.17700195    0.41999999    2.64000010
   14.54861164  128.53900146    0.41999999    2.64000010
   14.55166721  126.79100037    0.41999999    2.64000010
   14.55249977  134.44200134    0.41999999    2.64000010
   14.55555534  127.92199707    0.41999999    2.64000010
   14.55888939  124.01799774    0.40000001    2.64000010
   14.56222248  126.82499695    0.40000001    2.64000010
   14.56527805  125.67500305    0.40000001    2.64000010
   14.57138920  125.67500305    0.40000001    2.64000010
   14.57527733  136.09800720    0.38000000    2.64000010
   14.57861137  140.84300232    0.38000000    2.64000010
   14.58194447  130.56799316    0.38000000    2.64000010
   14.58500004  130.35499573    0.38000000    2.64000010
   14.58555508  126.58399963    0.38000000    2.64000010
   14.58888817  111.29199982    0.38000000    2.64000010
   14.59194374  123.90000153    0.38000000    2.64000010
   14.59527779  126.07900238    0.38000000    2.64000010
   14.59861088  122.87000275    0.38000000    2.64000010
   14.60194492  132.62699890    0.38000000    2.64000010
   14.60500050  117.96900177    0.38000000    2.64000010
   14.60833359  121.33399963    0.38000000    2.64000010
   14.61416721  121.33399963    0.38000000    2.64000010
   14.61833382  122.43699646    0.36000001    2.64000010
   14.61861134  119.25399780    0.36000001    2.64000010
   14.62194443  137.36799622    0.36000001    2.64000010
   14.62527752  127.26599884    0.34000000    2.64000010
   14.62833309  128.66999817    0.34000000    2.64000010
   14.63166714  125.07900238    0.34000000    2.64000010
   14.63500023  124.72299957    0.31999999    2.64000010
   14.63805580  123.58699799    0.31999999    2.64000010
   14.64138889  112.96900177    0.31999999    2.64000010
   14.64444447  112.41799927    0.31999999    2.64000010
   14.64777756  131.09599304    0.34000000    2.64000010
   14.65111065  124.12100220    0.34000000    2.64000010
   14.65194416  119.61699677    0.34000000    2.64000010
   14.65694427  119.61699677    0.36000001    2.64000010
   14.66111088  117.66999817    0.36000001    2.64000010
   14.66444397  119.13899994    0.34000000    2.64000010
   14.66750050  120.30899811    0.34000000    2.64000010
   14.67083359  119.94599915    0.34000000    2.64000010
   14.67416668  105.17600250    0.34000000    2.64000010
   14.67722225  116.03900146    0.34000000    2.64000010
   14.68055630  109.62300110    0.34000000    2.64000010
   14.68361092  110.39099884    0.34000000    2.64000010
   14.68527794  115.16000366    0.34000000    2.64000010
   14.68722248  112.12200165    0.36000001    2.64000010
   14.69055557  119.51799774    0.36000001    2.64000010
   14.69361115  113.99900055    0.36000001    2.64000010
   14.69972229  113.99900055    0.38000000    2.64000010
   14.70388889  118.55400085    0.38000000    2.64000010
   14.70722198  115.85700226    0.40000001    2.64000010
   14.71027756  115.12799835    0.40000001    2.64000010
   14.71361065  120.39499664    0.44000000    2.64000010
   14.71694374  119.14299774    0.51999998    2.64000010
   14.71888828  111.70700073    0.51999998    2.64000010
   14.72055531  124.78900146    0.61000001    2.64000010
   14.72388840  119.24500275    0.63000000    2.64000010
   14.72694397  122.22599792    0.63000000    2.64000010
   14.73027706  110.70400238    0.73000002    2.64000010
   14.73361111  118.05599976    0.70999998    2.64000010
   14.73666668  113.98899841    0.75000000    2.64000010
   14.74277782  113.98899841    0.58999997    2.64000010
   14.74666691  121.31099701    0.52999997    2.66000009
   14.75000000  127.04000092    0.52999997    2.64000010
   14.75222206  114.90799713    0.52999997    2.64000010
   14.75361156  111.27700043    0.52999997    2.64000010
   14.75694466  117.94599915    0.55000001    2.64000010
   14.76000023  112.26100159    0.58999997    2.64000010
   14.76333332  117.90799713    0.52999997    2.64000010
   14.76666641  116.33799744    0.52999997    2.64000010
   14.76972198  118.17099762    0.46000001    2.64000010
   14.77305508  112.27700043    0.44000000    2.66000009
   14.77638817  118.57199860    0.44000000    2.64000010
   14.77944374  116.24199677    0.41999999    2.66000009
   14.78555584  116.24199677    0.47999999    2.64000010
   14.78972244  114.37899780    0.55000001    2.66000009
   14.79277802  110.90799713    0.55000001    2.66000009
   14.79611111  123.70700073    0.55000001    2.66000009
   14.79944515  127.81300354    0.52999997    2.66000009
   14.80249977  109.55799866    0.50000000    2.66000009
   14.80583382  117.93399811    0.46000001    2.64000010
   14.80916691  119.77100372    0.41999999    2.64000010
   14.81222248  121.61499786    0.44000000    2.64000010
   14.81555557  130.03300476    0.40000001    2.64000010
   14.81888866  126.84899902    0.40000001    2.64000010
   14.81916618  126.58799744    0.40000001    2.64000010
   14.82250023  113.42500305    0.40000001    2.64000010
   14.82833290  113.42500305    0.40000001    2.66000009
   14.83249950  103.70099640    0.38000000    2.66000009
   14.83583260  104.89099884    0.36000001    2.64000010
   14.83888817  107.64600372    0.34000000    2.64000010
   14.84222221  110.20500183    0.34000000    2.64000010
   14.84527779  111.94400024    0.34000000    2.64000010
   14.84861088  108.69499969    0.31999999    2.66000009
   14.85194492  117.24900055    0.31999999    2.66000009
   14.85222244  115.94100189    0.31999999    2.66000009
   14.85555553  116.71700287    0.30000001    2.66000009
   14.85888958  116.36199951    0.30000001    2.66000009
   14.86194515  112.47499847    0.30000001    2.64000010
   14.86527824  106.44599915    0.30000001    2.66000009
   14.87111092  106.44599915    0.30000001    2.66000009
   14.87527752  124.88899994    0.31999999    2.66000009
   14.87861156  129.25599670    0.31999999    2.66000009
   14.88166714  111.96099854    0.30000001    2.66000009
   14.88500023  112.46499634    0.30000001    2.66000009
   14.88555527  117.11699677    0.30000001    2.66000009
   14.88861084  125.67199707    0.30000001    2.66000009
   14.89194393  116.58499908    0.30000001    2.66000009
   14.89499950  110.64299774    0.30000001    2.66000009
   14.89833355  116.82599640    0.28000000    2.66000009
   14.90166664  110.42199707    0.28000000    2.66000009
   14.90472221  112.38200378    0.28000000    2.66000009
   14.90805531  124.22299957    0.28000000    2.66000009
   14.91416645  124.22299957    0.28000000    2.66000009
   14.91805553  110.69699860    0.28000000    2.66000009
   14.91916656  117.41899872    0.28000000    2.66000009
   14.92166710  105.63899994    0.28000000    2.66000009
   14.92500019  121.79499817    0.28000000    2.66000009
   14.92833328  119.08799744    0.28000000    2.66000009
   14.93138885  114.46199799    0.30000001    2.66000009
   14.93472195  124.62599945    0.30000001    2.66000009
   14.93777752  119.55599976    0.30000001    2.66000009
   14.94111156  117.45300293    0.31999999    2.66000009
   14.94444466  132.16400146    0.31999999    2.66000009
   14.94750023  109.14499664    0.31999999    2.66000009
   14.95083332  118.89399719    0.31999999    2.66000009
   14.95249939  118.76899719    0.34000000    2.66000009
   14.95694447  118.76899719    0.36000001    2.66000009
   14.96111107  112.16600037    0.36000001    2.66000009
   14.96416664  116.30400085    0.36000001    2.66000009
   14.96749973  116.87999725    0.36000001    2.66000009
   14.97083282  120.45500183    0.36000001    2.66000009
   14.97388840  115.98000336    0.38000000    2.66000009
   14.97722149  120.28700256    0.38000000    2.66000009
   14.98027706  112.98600006    0.38000000    2.66000009
   14.98361111  117.52700043    0.38000000    2.66000009
   14.98583317  119.94799805    0.38000000    2.66000009
   14.98722267  111.44999695    0.38000000    2.66000009
   14.99055576  129.62600708    0.38000000    2.66000009
   14.99388885  111.71399689    0.36000001    2.66000009
   14.99972248  111.71399689    0.36000001    2.66000009
   15.00416660  115.78700256    0.36000001    2.66000009
   15.10444450   -1.00000000   -1.00000000   -1.00000000
   15.20249939   -1.00000000   -1.00000000   -1.00000000
   15.31361103   -1.00000000   -1.00000000   -1.00000000
   15.34722233  110.24400330    0.28000000    2.67000008
   15.35027790  128.22099304    0.25999999    2.67000008
   15.35361195  118.95600128    0.25999999    2.67000008
   15.35694504  133.16900635    0.25999999    2.67000008
   15.36000061  131.35600281    0.28000000    2.67000008
   15.36333370  125.02799988    0.25999999    2.69000006
   15.36750031  125.02799988    0.25999999    2.67000008
   15.37166691  123.11499786    0.28000000    2.67000008
   15.37472248  135.72399902    0.28000000    2.67000008
   15.37805557  122.10800171    0.30000001    2.67000008
   15.38027763  123.65100098    0.30000001    2.67000008
   15.38166714  134.21499634    0.30000001    2.67000008
   15.38500023  124.42700195    0.31999999    2.67000008
   15.38805580  117.39800262    0.31999999    2.67000008
   15.39138889  111.46299744    0.31999999    2.67000008
   15.39472198  127.49800110    0.31999999    2.67000008
   15.39777756  117.83000183    0.30000001    2.67000008
   15.40111065  113.25599670    0.30000001    2.69000006
   15.40416622  118.33200073    0.30000001    2.66000009
   15.41027737  118.33200073    0.30000001    2.67000008
   15.41444397  123.69699860    0.30000001    2.69000006
   15.41750050  110.81600189    0.30000001    2.67000008
   15.42083359  120.42800140    0.30000001    2.67000008
   15.42416668  115.23899841    0.30000001    2.69000006
   15.42722225  117.00099945    0.31999999    2.69000006
   15.43055630  117.40799713    0.31999999    2.69000006
   15.43388939  113.66899872    0.30000001    2.67000008
   15.43694496  110.19000244    0.30000001    2.67000008
   15.44027805  114.31800079    0.30000001    2.69000006
   15.44333363  117.58100128    0.30000001    2.67000008
   15.44666672  116.18199921    0.30000001    2.67000008
   15.44722271  111.22499847    0.30000001    2.67000008
   15.45305538  111.22499847    0.30000001    2.69000006
   15.45722198  114.44899750    0.28000000    2.69000006
   15.46055508  114.92900085    0.28000000    2.69000006
   15.46361065  115.67299652    0.28000000    2.69000006
   15.46694374  115.78399658    0.28000000    2.67000008
   15.47027779  111.16000366    0.28000000    2.67000008
   15.47333336  115.58100128    0.28000000    2.67000008
   15.47666645  114.29799652    0.28000000    2.69000006
   15.47972202  112.51599884    0.28000000    2.69000006
   15.48055553  119.38999939    0.28000000    2.67000008
   15.48361111  118.30500031    0.28000000    2.67000008
   15.48666668  110.85900116    0.28000000    2.69000006
   15.49000072  105.88400269    0.25999999    2.69000006
   15.49583340  105.88400269    0.28000000    2.67000008
   15.50000000  113.81300354    0.28000000    2.67000008
   15.50333309  105.28199768    0.28000000    2.67000008
   15.50666714  118.72699738    0.28000000    2.67000008
   15.50972176  109.47499847    0.28000000    2.69000006
   15.51305580  106.75199890    0.30000001    2.69000006
   15.51388931  105.23500061    0.30000001    2.69000006
   15.51666641  111.98300171    0.30000001    2.69000006
   15.51972198  102.57700348    0.30000001    2.69000006
   15.52305508  102.29100037    0.30000001    2.69000006
   15.52611065  108.45099640    0.31999999    2.69000006
   15.52944374  114.63600159    0.31999999    2.69000006
   15.53277779  106.40599823    0.34000000    2.67000008
   15.53888893  106.40599823    0.36000001    2.67000008
   15.54305553  103.46600342    0.36000001    2.67000008
   15.54611111  103.91000366    0.36000001    2.67000008
   15.54722309  110.51200104    0.36000001    2.67000008
   15.55000019  108.32099915    0.34000000    2.69000006
   15.55305576   98.77369690    0.31999999    2.69000006
   15.55638885  103.12799835    0.31999999    2.69000006
   15.55944443  103.53700256    0.31999999    2.69000006
   15.56277752   98.99819946    0.31999999    2.69000006
   15.56611156  109.81300354    0.34000000    2.67000008
   15.56916618  111.26499939    0.34000000    2.67000008
   15.57250023  104.30799866    0.36000001    2.69000006
   15.57583332  105.09799957    0.38000000    2.69000006
   15.58166695  105.09799957    0.36000001    2.67000008
   15.58583260  109.11299896    0.36000001    2.67000008
   15.58916664  107.58999634    0.36000001    2.69000006
   15.59222221  107.44200134    0.36000001    2.69000006
   15.59555531  112.78399658    0.36000001    2.69000006
   15.59888840  105.51399994    0.38000000    2.69000006
   15.60194492  105.98500061    0.36000001    2.69000006
   15.60527802  100.72799683    0.36000001    2.69000006
   15.60833359  108.20999908    0.36000001    2.67000008
   15.61166668  104.95800018    0.36000001    2.67000008
   15.61388969  109.84100342    0.36000001    2.67000008
   15.61527824  106.89099884    0.34000000    2.69000006
   15.61833382  110.87200165    0.34000000    2.69000006
   15.62444496  110.87200165    0.31999999    2.69000006
   15.62861156  101.52600098    0.30000001    2.69000006
   15.63194466  109.96499634    0.30000001    2.69000006
   15.63500023  102.55799866    0.31999999    2.67000008
   15.63833332  100.53600311    0.31999999    2.67000008
   15.64166641  107.25499725    0.31999999    2.69000006
   15.64472198  109.01200104    0.31999999    2.69000006
   15.64722252   97.38999939    0.31999999    2.69000006
   15.64861107  109.52500153    0.31999999    2.69000006
   15.65166664  108.88099670    0.34000000    2.69000006
   15.65499973  117.27500153    0.34000000    2.69000006
   15.65805531  106.88500214    0.34000000    2.69000006
   15.66138840  107.86100006    0.36000001    2.69000006
   15.66722298  107.86100006    0.36000001    2.69000006
   15.67138958  102.23500061    0.36000001    2.67000008
   15.67472267  103.30599976    0.38000000    2.67000008
   15.67805576  109.02100372    0.38000000    2.67000008
   15.68055630  104.05899811    0.38000000    2.67000008
   15.68166733  102.78900146    0.38000000    2.67000008
   15.68472195  107.95700073    0.38000000    2.69000006
   15.68805599  104.01000214    0.38000000    2.69000006
   15.69138908  106.37599945    0.38000000    2.69000006
   15.69444466  104.48500061    0.36000001    2.69000006
   15.69777775  109.06300354    0.36000001    2.69000006
   15.70111084  102.24199677    0.36000001    2.69000006
   15.70416641  109.83999634    0.36000001    2.69000006
   15.71027756  109.83999634    0.36000001    2.69000006
   15.71444416  101.89099884    0.36000001    2.67000008
   15.71749973  103.47200012    0.36000001    2.69000006
   15.72083282  103.23799896    0.36000001    2.67000008
   15.72388840   97.49289703    0.36000001    2.69000006
   15.72722149  101.62899780    0.36000001    2.69000006
   15.73055553  105.98200226    0.34000000    2.69000006
   15.73361111  101.46499634    0.34000000    2.67000008
   15.73694515   98.30529785    0.34000000    2.67000008
   15.74027824  109.14099884    0.34000000    2.67000008
   15.74333382   97.10299683    0.34000000    2.69000006
   15.74666691  101.61699677    0.34000000    2.67000008
   15.74722290  116.82900238    0.34000000    2.67000008
   15.75305557  116.82900238    0.34000000    2.69000006
   15.75722218   98.86109924    0.34000000    2.67000008
   15.76027775  106.11199951    0.31999999    2.69000006
   15.76361084  109.74099731    0.31999999    2.69000006
   15.76694393  110.60399628    0.31999999    2.67000008
   15.76999950  103.55899811    0.30000001    2.69000006
   15.77333355  107.49900055    0.30000001    2.67000008
   15.77666664  116.63200378    0.30000001    2.67000008
   15.77972221  107.66899872    0.30000001    2.69000006
   15.78055573  108.77999878    0.28000000    2.69000006
   15.78333378  102.93900299    0.28000000    2.69000006
   15.78638935  103.33899689    0.25999999    2.69000006
   15.78972244  106.35299683    0.25999999    2.69000006
   15.79583359  106.35299683    0.25999999    2.69000006
   15.80000019  106.17800140    0.25999999    2.69000006
   15.80333328  101.85600281    0.25999999    2.69000006
   15.80638885  105.25000000    0.25999999    2.69000006
   15.80972195   96.93489838    0.25999999    2.67000008
   15.81305599  106.88700104    0.25999999    2.67000008
   15.81388950  106.66100311    0.25999999    2.67000008
   15.81666660  111.81600189    0.25999999    2.69000006
   15.81972218  103.37799835    0.25999999    2.69000006
   15.82305527  113.28700256    0.25999999    2.69000006
   15.82638836  111.56300354    0.25999999    2.69000006
   15.82972240  102.42099762    0.28000000    2.69000006
   15.83305550  104.22499847    0.28000000    2.69000006
   15.83861065  104.22499847    0.30000001    2.69000006
   15.84277725  112.91999817    0.30000001    2.67000008
   15.84611034  111.47200012    0.30000001    2.67000008
   15.84749985  110.58200073    0.30000001    2.69000006
   15.84972191  103.11900330    0.30000001    2.69000006
   15.85305595  111.91200256    0.31999999    2.69000006
   15.85638905  107.20899963    0.34000000    2.69000006
   15.85944462  112.25599670    0.34000000    2.69000006
   15.86277771  119.95300293    0.34000000    2.69000006
   15.86583328  102.68699646    0.34000000    2.69000006
   15.86916637  105.06199646    0.34000000    2.67000008
   15.87250042  104.09400177    0.34000000    2.67000008
   15.87555599  105.53700256    0.34000000    2.69000006
   15.88166714  105.53700256    0.36000001    2.69000006
   15.88583279  106.66999817    0.34000000    2.69000006
   15.88888836  111.47200012    0.34000000    2.69000006
   15.89222240  116.01300049    0.31999999    2.69000006
   15.89527798  111.41300201    0.31999999    2.69000006
   15.89861107  103.77700043    0.31999999    2.69000006
   15.90194416  107.82800293    0.31999999    2.69000006
   15.90499973  104.82599640    0.31999999    2.69000006
   15.90833282  102.33399963    0.31999999    2.69000006
   15.91166592  102.26200104    0.31999999    2.69000006
   15.91388893  109.27400208    0.31999999    2.69000006
   15.91527748  108.97499847    0.31999999    2.69000006
   15.91833401  106.52100372    0.31999999    2.67000008
   15.92444515  106.52100372    0.31999999    2.69000006
   15.92861176  107.28900146    0.34000000    2.67000008
   15.93166733  111.64099884    0.34000000    2.69000006
   15.93500042  114.48100281    0.34000000    2.69000006
   15.93833351  104.59300232    0.31999999    2.69000006
   15.94138908   97.42079926    0.31999999    2.69000006
   15.94472218  106.68599701    0.31999999    2.69000006
   15.94722271  109.25199890    0.31999999    2.69000006
   15.94833374  111.69300079    0.31999999    2.69000006
   15.95138836  103.31300354    0.34000000    2.69000006
   15.95472240  111.75900269    0.34000000    2.69000006
   15.95805550  111.98799896    0.34000000    2.69000006
   15.96111107  105.50299835    0.34000000    2.69000006
   15.96722221  105.50299835    0.34000000    2.69000006
   15.97138882  103.29100037    0.34000000    2.69000006
   15.97472191   99.22799683    0.31999999    2.69000006
   15.97777748  107.88700104    0.31999999    2.69000006
   15.98055553  106.23999786    0.34000000    2.67000008
   15.98166656  112.11199951    0.34000000    2.67000008
   15.98472214  113.12699890    0.36000001    2.69000006
   15.98805618  103.02999878    0.40000001    2.69000006
   15.99138927  110.33899689    0.44000000    2.69000006
   15.99444485  101.91200256    0.44000000    2.69000006
   15.99777794  101.96700287    0.47999999    2.69000006
   16.00083351  111.87200165    0.47999999    2.69000006
   16.00416756  102.80899811    0.50000000    2.69000006
   16.01000023  102.80899811    0.52999997    2.69000006
   16.01416588  102.02899933    0.56999999    2.67000008
   16.01749992  100.90799713    0.63000000    2.69000006
   16.02083397  106.70500183    0.64999998    2.69000006
   16.02388954  103.23500061    0.64999998    2.69000006
   16.02722168  115.74299622    0.67000002    2.69000006
   16.03055573  107.68900299    0.64999998    2.69000006
   16.03361130  113.26100159    0.67000002    2.69000006
   16.03694344  106.68599701    0.67000002    2.69000006
   16.04027748  112.57399750    0.63000000    2.69000006
   16.04333305  101.51599884    0.63000000    2.69000006
   16.04666710  106.29499817    0.67000002    2.69000006
   16.04722214  101.14900208    0.67000002    2.69000006
   16.05305481  101.14900208    0.75000000    2.69000006
   16.05722237  112.13899994    0.76999998    2.69000006
   16.06027794  111.01200104    0.70999998    2.69000006
   16.06361008   97.41799927    0.69000000    2.69000006
   16.06666756  102.57399750    0.69000000    2.69000006
   16.07000160  109.77100372    0.69000000    2.69000006
   16.07333374  106.21900177    0.69000000    2.69000006
   16.07638931  106.09899902    0.69000000    2.69000006
   16.07972336  104.08699799    0.70999998    2.69000006
   16.08055687  101.58000183    0.70999998    2.69000006
   16.08333397  101.07599640    0.76999998    2.69000006
   16.08666801  120.38600159    0.76999998    2.69000006
   16.08972359  106.88999939    0.83999997    2.69000006
   16.09583473  106.88999939    1.00000000    2.69000006
   16.10000038  111.44300079    1.05999994    2.67000008
   16.10305595  107.54699707    1.05999994    2.69000006
   16.10639000  113.31600189    1.05999994    2.69000006
   16.10972214  104.57700348    1.07000005    2.69000006
   16.11277771  122.26300049    1.11000001    2.69000006
   16.11388969  114.55100250    1.11000001    2.69000006
   16.11638832  114.31199646    1.21000004    2.67000008
   16.11944389  105.94899750    1.39999998    2.67000008
   16.12277794  127.92099762    1.60000002    2.67000008
   16.12611198  116.13099670    1.60000002    2.67000008
   16.12916756  105.96099854    1.75000000    2.69000006
   16.13249969  117.12000275    1.76999998    2.69000006
   16.13861084  117.12000275    1.53999996    2.69000006
   16.14277840  117.44100189    1.38000000    2.69000006
   16.14611053  110.53399658    1.19000006    2.69000006
   16.14722252  107.85800171    1.19000006    2.69000006
   16.14972115  121.33599854    1.03999996    2.69000006
   16.15277672  123.75199890    1.03999996    2.69000006
   16.15611076  108.44000244    0.95999998    2.69000006
   16.15944481  115.08200073    0.95999998    2.69000006
   16.16250038  105.63700104    0.89999998    2.69000006
   16.16583252  109.47899628    0.73000002    2.69000006
   16.16916656  120.93000031    0.69000000    2.69000006
   16.17222214  118.38400269    0.63000000    2.69000006
   16.17555428  107.82199860    0.61000001    2.69000006
   16.18138885  107.82199860    0.58999997    2.69000006
   16.18555450  117.07399750    0.58999997    2.69000006
   16.18888855  110.57700348    0.58999997    2.69000006
   16.19222069  123.27500153    0.61000001    2.69000006
   16.19555473  115.87699890    0.63000000    2.69000006
   16.19861031  114.56300354    0.67000002    2.69000006
   16.20194435  107.81300354    0.67000002    2.69000006
   16.20527840  120.43599701    0.64999998    2.69000006
   16.20833397  112.71600342    0.64999998    2.69000006
   16.21166801  120.06600189    0.63000000    2.69000006
   16.21389008  111.33100128    0.61000001    2.69000006
   16.21527863  109.39399719    0.61000001    2.69000006
   16.21861076  137.51800537    0.61000001    2.69000006
   16.22444534  137.51800537    0.61000001    2.69000006
   16.22861099  105.87599945    0.61000001    2.69000006
   16.23166656  122.41500092    0.61000001    2.69000006
   16.23500061  108.83200073    0.63000000    2.69000006
   16.23805618  103.05200195    0.67000002    2.69000006
   16.24138832  124.84200287    0.70999998    2.69000006
   16.24472237  109.16799927    0.81999999    2.69000006
   16.24722290  119.62000275    0.86000001    2.69000006
   16.24833298  119.66699982    0.86000001    2.69000006
   16.25166702  110.10099792    0.89999998    2.69000006
   16.25472260  120.76300049    0.89999998    2.69000006
   16.25805473  100.81900024    0.89999998    2.69000006
   16.26111031   99.86080170    0.81999999    2.69000006
   16.26722145   99.86080170    0.69000000    2.69000006
   16.27138901  111.75800323    0.64999998    2.69000006
   16.27472115  118.45099640    0.64999998    2.71000004
   16.27777672  123.27700043    0.64999998    2.69000006
   16.28055573  123.55999756    0.64999998    2.69000006
   16.28138924  114.48200226    0.64999998    2.69000006
   16.28444481  107.35700226    0.69000000    2.69000006
   16.28777695  120.50499725    0.76999998    2.69000006
   16.29111099  115.75800323    0.86000001    2.69000006
   16.29416656  137.53199768    0.88000000    2.69000006
   16.29749870  124.46399689    0.89999998    2.69000006
   16.30083275  117.52100372    0.89999998    2.69000006
   16.30388832  123.23000336    0.92000002    2.69000006
   16.30999947  123.23000336    0.94000000    2.69000006
   16.31416512  115.73799896    1.00000000    2.69000006
   16.31750107  112.59600067    1.03999996    2.69000006
   16.32055664  114.76499939    1.11000001    2.69000006
   16.32389069  121.04799652    1.11000001    2.69000006
   16.32722282  121.89800262    1.19000006    2.69000006
   16.33027840  106.14800262    1.16999996    2.69000006
   16.33361244  113.55699921    1.13000000    2.69000006
   16.33694458  121.72100067    1.14999998    2.69000006
   16.34000015  122.36299896    1.14999998    2.69000006
   16.34333420  105.50199890    1.23000002    2.69000006
   16.34638977  114.58499908    1.25000000    2.67000008
   16.34722328  111.00599670    1.25000000    2.67000008
   16.36805534  111.00599670    1.86000001    2.69000006
   16.37222290  128.42599487    1.71000004    2.69000006
   16.37527847  128.15400696    1.69000006    2.69000006
   16.37861061  127.18299866    1.69000006    2.69000006
   16.38055611  134.00700378    1.64999998    2.69000006
   16.38222313  115.21499634    1.64999998    2.69000006
   16.38555527  136.07600403    1.58000004    2.69000006
   16.38861084  118.66200256    1.30999994    2.69000006
   16.39194489  122.94899750    1.30999994    2.69000006
   16.39500046  141.14199829    1.13000000    2.69000006
   16.39833260  124.23100281    1.03999996    2.69000006
   16.40166664  123.03600311    1.03999996    2.69000006
   16.40472221  127.95099640    0.94000000    2.69000006
   16.41083336  127.95099640    0.92000002    2.69000006
   16.41499901  123.72799683    0.89999998    2.69000006
   16.41805458  134.58999634    0.89999998    2.69000006
   16.42138863  136.71800232    0.88000000    2.69000006
   16.42472076  124.31400299    0.94000000    2.69000006
   16.42777634  124.30100250    1.00000000    2.69000006
   16.43111038  130.99400330    1.01999998    2.69000006
   16.43444443  145.35000610    1.01999998    2.67000008
   16.43750000  124.28900146    1.01999998    2.67000008
   16.44083214  131.26199341    1.00000000    2.69000006
   16.44388771  127.72100067    1.01999998    2.69000006
   16.44722176  142.51499939    0.95999998    2.69000006
   16.44777679  135.87500000    0.95999998    2.69000006
   16.45361137  135.87500000    0.83999997    2.71000004
   16.45777893  131.83799744    0.81999999    2.69000006
   16.46111107  150.21899414    0.81999999    2.69000006
   16.46416664  132.35899353    0.81999999    2.69000006
   16.46750069  128.10200500    0.80000001    2.69000006
   16.47055626  130.19500732    0.76999998    2.69000006
   16.47389030  134.30799866    0.75000000    2.69000006
   16.47722244  122.92199707    0.73000002    2.69000006
   16.48027802  141.14599609    0.73000002    2.69000006
   16.48111153  124.44799805    0.73000002    2.69000006
   16.48416710  130.61399841    0.73000002    2.69000006
   16.48722267  124.64900208    0.73000002    2.69000006
   16.49055672  117.04399872    0.70999998    2.67000008
   16.49638939  117.04399872    0.70999998    2.69000006
   16.50055504  126.49600220    0.69000000    2.69000006
   16.50388908  112.50199890    0.69000000    2.69000006
   16.50694466  115.51999664    0.69000000    2.71000004
   16.51027870  125.67700195    0.70999998    2.69000006
   16.51361084  117.32900238    0.73000002    2.69000006
   16.51444435  138.65800476    0.73000002    2.69000006
   16.51722145  139.65400696    0.73000002    2.69000006
   16.52027702  122.23300171    0.73000002    2.69000006
   16.52361107  127.00199890    0.70999998    2.69000006
   16.52666664  127.93299866    0.69000000    2.69000006
   16.53000069  129.10000610    0.69000000    2.69000006
   16.53333282  132.38400269    0.69000000    2.69000006
   16.53916550  132.38400269    0.70999998    2.69000006
   16.54333305  122.78399658    0.70999998    2.69000006
   16.54666710  123.26200104    0.67000002    2.71000004
   16.54777718  133.79200745    0.67000002    2.71000004
   16.55027771  120.37999725    0.67000002    2.71000004
   16.55333328  126.82399750    0.69000000    2.69000006
   16.55666542  124.26799774    0.67000002    2.69000006
   16.55972099  119.00499725    0.67000002    2.69000006
   16.56305504  122.33200073    0.67000002    2.69000006
   16.56638718  123.39399719    0.67000002    2.69000006
   16.56944466  133.75799561    0.69000000    2.69000006
   16.57277870  113.66999817    0.67000002    2.69000006
   16.57611275  127.58000183    0.67000002    2.69000006
   16.58222389  127.58000183    0.63000000    2.69000006
   16.58638954  130.42599487    0.58999997    2.71000004
   16.58944511  122.43900299    0.56999999    2.69000006
   16.59277916  116.80500031    0.56999999    2.69000006
   16.59611130  103.17600250    0.55000001    2.69000006
   16.59916687  121.46299744    0.55000001    2.69000006
   16.60250092  115.39099884    0.52999997    2.71000004
   16.60555649  106.97799683    0.51999998    2.71000004
   16.60888863  113.99900055    0.47999999    2.69000006
   16.61222267  107.53299713    0.46000001    2.71000004
   16.61444473  109.35399628    0.46000001    2.71000004
   16.61583328  122.10600281    0.46000001    2.71000004
   16.61888885  114.76399994    0.44000000    2.71000004
   16.62500000  114.76399994    0.44000000    2.71000004
   16.62916756  124.55999756    0.46000001    2.71000004
   16.63249969  121.78099823    0.46000001    2.69000006
   16.63555527  116.85199738    0.47999999    2.71000004
   16.63888931  112.99400330    0.51999998    2.69000006
   16.64194489  122.81700134    0.52999997    2.69000006
   16.64527702  121.78900146    0.52999997    2.71000004
   16.64777756  129.13000488    0.52999997    2.69000006
   16.64888954  107.54399872    0.52999997    2.69000006
   16.65194321  118.66000366    0.52999997    2.69000006
   16.65527725  113.26999664    0.55000001    2.69000006
   16.65833282  125.39399719    0.56999999    2.69000006
   16.66166687  116.93800354    0.56999999    2.71000004
   16.66777802  116.93800354    0.52999997    2.69000006
   16.67194366  107.89399719    0.56999999    2.69000006
   16.67527771  118.12999725    0.63000000    2.69000006
   16.67833328  118.50900269    0.73000002    2.71000004
   16.68111038  104.25199890    0.81999999    2.69000006
   16.68222237  115.21399689    0.81999999    2.69000006
   16.68527603  106.97899628    0.86000001    2.69000006
   16.68861008  113.41100311    0.83999997    2.69000006
   16.69166565  104.47499847    0.79000002    2.71000004
   16.69499969  115.22399902    0.76999998    2.69000006
   16.69833183  115.40499878    0.76999998    2.69000006
   16.70138931  120.60700226    0.70999998    2.69000006
   16.70472336  117.88300323    0.63000000    2.71000004
   16.71083450  117.88300323    0.58999997    2.71000004
   16.71472359  124.27100372    0.58999997    2.71000004
   16.71805573  117.77300262    0.46000001    2.71000004
   16.72138977  114.46600342    0.46000001    2.69000006
   16.72444534  113.39399719    0.46000001    2.69000006
   16.72777748  126.20500183    0.46000001    2.71000004
   16.73111153  119.48600006    0.46000001    2.71000004
   16.73416710  111.72200012    0.51999998    2.71000004
   16.73750114  115.08100128    0.52999997    2.69000006
   16.74055672  124.24700165    0.55000001    2.71000004
   16.74388885  111.97200012    0.56999999    2.69000006
   16.74722290  128.49000549    0.64999998    2.69000006
   16.74777794  116.36199951    0.67000002    2.69000006
   16.75361061  116.36199951    0.69000000    2.69000006
   16.75777817  114.68800354    0.67000002    2.71000004
   16.76083374  121.48200226    0.67000002    2.69000006
   16.76416588  115.80100250    0.47999999    2.71000004
   16.76749992  115.04100037    0.47999999    2.71000004
   16.77055550  113.65399933    0.47999999    2.71000004
   16.77388954  122.61399841    0.47999999    2.71000004
   16.77694511  124.36100006    0.46000001    2.71000004
   16.78027725  118.16200256    0.47999999    2.71000004
   16.78111076  115.25099945    0.47999999    2.71000004
   16.78388786  120.71700287    0.50000000    2.69000006
   16.78694344  116.13500214    0.52999997    2.71000004
   16.79027748  119.46099854    0.52999997    2.71000004
   16.79638863  119.46099854    0.70999998    2.69000006
   16.80055428  115.38200378    0.80000001    2.69000006
   16.80388832  121.43199921    0.80000001    2.71000004
   16.80694389  126.44899750    0.79000002    2.69000006
   16.81027794  116.13500214    0.76999998    2.71000004
   16.81333351  116.07700348    0.76999998    2.71000004
   16.81444359  110.83300018    0.73000002    2.69000006
   16.81722260  114.95899963    0.73000002    2.69000006
   16.82027817  111.83300018    0.67000002    2.69000006
   16.82361221  123.50499725    0.67000002    2.69000006
   16.82694626  113.44400024    0.67000002    2.69000006
   16.83000183  114.45700073    0.69000000    2.69000006
   16.83333397  112.57099915    0.70999998    2.69000006
   16.83916664  112.57099915    0.75000000    2.71000004
   16.84333420  113.76399994    0.79000002    2.69000006
   16.84666824  119.79699707    0.80000001    2.69000006
   16.84777832  117.07800293    0.80000001    2.69000006
   16.85027885  110.79900360    0.80000001    2.71000004
   16.85333443  109.59400177    0.79000002    2.69000006
   16.85666656  114.49900055    0.79000002    2.69000006
   16.86000061  103.91699982    0.76999998    2.69000006
   16.86305618  109.46700287    0.73000002    2.69000006
   16.86638832  125.82499695    0.70999998    2.71000004
   16.87000084  112.87300110    0.67000002    2.69000006
   16.87305641  103.11699677    0.63000000    2.71000004
   16.87638855  122.86100006    0.58999997    2.69000006
   16.88222313  122.86100006    0.58999997    2.71000004
   16.88611031  119.16300201    0.58999997    2.69000006
   16.88944435   99.15290070    0.52999997    2.71000004
   16.89277840  112.47399902    0.52999997    2.71000004
   16.89583397  113.78500366    0.51999998    2.71000004
   16.89916611   99.44149780    0.47999999    2.69000006
   16.90250015  111.58699799    0.47999999    2.69000006
   16.90555573  103.33100128    0.47999999    2.71000004
   16.90888786   99.09829712    0.47999999    2.71000004
   16.91194344   95.34390259    0.47999999    2.71000004
   16.91444397  106.20899963    0.47999999    2.71000004
   16.91583252  107.59100342    0.47999999    2.71000004
   16.91888809  111.36100006    0.47999999    2.71000004
   16.92499924  111.36100006    0.47999999    2.71000004
   16.92916679  109.96399689    0.47999999    2.69000006
   16.93222237  111.51699829    0.47999999    2.69000006
   16.93555450  116.03500366    0.50000000    2.69000006
   16.93888855  110.56700134    0.50000000    2.69000006
   16.94194412  109.45200348    0.50000000    2.69000006
   16.94527626  113.22499847    0.51999998    2.69000006
   16.94777679  107.98600006    0.51999998    2.71000004
   16.94888878  123.61199951    0.51999998    2.71000004
   16.95194435  111.08499908    0.51999998    2.71000004
   16.95527840  114.79399872    0.51999998    2.71000004
   16.95861244  121.64700317    0.51999998    2.69000006
   16.96166801  112.34600067    0.51999998    2.71000004
   16.96777916  112.34600067    0.55000001    2.69000006
   16.97194481  104.90499878    0.61000001    2.71000004
   16.97527885  115.77799988    0.63000000    2.71000004
   16.97833443  112.15399933    0.63000000    2.69000006
   16.98111153  107.49199677    0.63000000    2.69000006
   16.98222351  115.45700073    0.63000000    2.71000004
   16.98527718  106.52700043    0.63000000    2.71000004
   16.98861122  119.56199646    0.61000001    2.71000004
   16.99194527  107.36000061    0.61000001    2.69000006
   16.99500084  111.98600006    0.63000000    2.69000006
   16.99833298  116.56199646    0.61000001    2.69000006
   17.00166702  116.83899689    0.63000000    2.69000006
   17.00499916  114.99800110    0.61000001    2.69000006
   17.01055527  114.99800110    0.61000001    2.69000006
   17.01472282  116.01399994    0.63000000    2.69000006
   17.01805496  105.09899902    0.64999998    2.69000006
   17.02111053  102.94100189    0.64999998    2.71000004
   17.02444458  109.14499664    0.61000001    2.71000004
   17.02777672  107.91799927    0.58999997    2.69000006
   17.03083229  111.48500061    0.58999997    2.69000006
   17.03416634  110.92600250    0.58999997    2.71000004
   17.03750038  110.90899658    0.58999997    2.69000006
   17.04055595  112.75000000    0.58999997    2.69000006
   17.04388809  124.59700012    0.58999997    2.69000006
   17.04722214  111.99600220    0.63000000    2.69000006
   17.04777718  117.96399689    0.63000000    2.69000006
   17.05360985  117.96399689    0.73000002    2.69000006
   17.05749893  108.35500336    0.76999998    2.69000006
   17.06083298  106.20999908    0.79000002    2.69000006
   17.06416512  108.43199921    0.79000002    2.69000006
   17.06722260  107.70800018    0.79000002    2.69000006
   17.07055664  111.47799683    0.79000002    2.69000006
   17.07389069  112.23500061    0.76999998    2.71000004
   17.07694626  107.69599915    0.76999998    2.69000006
   17.08027840  106.36399841    0.76999998    2.69000006
   17.08111191  108.77500153    0.76999998    2.69000006
   17.08388901  116.94999695    0.75000000    2.69000006
   17.08694458  113.55899811    0.73000002    2.69000006
   17.09027863  109.39700317    0.75000000    2.69000006
   17.09638977  109.39700317    0.75000000    2.69000006
   17.10055542  117.17400360    0.76999998    2.69000006
   17.10361099  110.76200104    0.76999998    2.69000006
   17.10694504  111.50199890    0.79000002    2.69000006
   17.11000061  112.35399628    0.79000002    2.69000006
   17.11333466  110.49400330    0.80000001    2.69000006
   17.11444473  117.33799744    0.80000001    2.69000006
   17.11694527   97.65640259    0.81999999    2.69000006
   17.12000084  115.06600189    0.81999999    2.69000006
   17.12333298  119.77999878    0.86000001    2.69000006
   17.12666702  113.59500122    0.83999997    2.69000006
   17.12972260  114.03299713    0.83999997    2.69000006
   17.13305473  116.07199860    0.83999997    2.69000006
   17.13916588  116.07199860    0.81999999    2.69000006
   17.14333344  113.25800323    0.80000001    2.69000006
   17.14666748  118.43199921    0.76999998    2.71000004
   17.14777756  100.95700073    0.76999998    2.71000004
   17.15027809  102.52899933    0.75000000    2.71000004
   17.15333366  108.65799713    0.73000002    2.69000006
   17.15666580  112.58399963    0.70999998    2.69000006
   17.15999985  110.98500061    0.70999998    2.67000008
   17.16305542  113.29499817    0.70999998    2.67000008
   17.16638756  108.69300079    0.69000000    2.69000006
   17.16972160  114.25900269    0.69000000    2.69000006
   17.17277718   99.70690155    0.69000000    2.69000006
   17.17611122  118.31400299    0.70999998    2.69000006
   17.18194389  118.31400299    0.73000002    2.69000006
   17.18610954  104.46700287    0.73000002    2.69000006
   17.18944359  102.87599945    0.73000002    2.69000006
   17.19249916  100.93699646    0.75000000    2.69000006
   17.19583321  106.37100220    0.75000000    2.69000006
   17.19916534  106.96199799    0.75000000    2.69000006
   17.20250130  116.75000000    0.75000000    2.69000006
   17.20555687  117.72299957    0.75000000    2.69000006
   17.20888901  115.54799652    0.70999998    2.69000006
   17.21222305  118.73699951    0.69000000    2.69000006
   17.21472359  117.12999725    0.64999998    2.69000006
   17.21583366  110.01399994    0.64999998    2.69000006
   17.21916771  117.70700073    0.64999998    2.69000006
   17.22472191  117.70700073    0.67000002    2.67000008
   17.22916794  103.55799866    0.67000002    2.69000006
   17.23250008  107.26300049    0.67000002    2.69000006
   17.23555565  102.84700012    0.67000002    2.69000006
   17.23888969  112.07900238    0.63000000    2.69000006
   17.24222183  110.55500031    0.58999997    2.69000006
   17.24527740  109.51100159    0.55000001    2.69000006
   17.24777794  100.56099701    0.52999997    2.71000004
   17.24888992  102.47399902    0.52999997    2.71000004
   17.25222206  101.64900208    0.51999998    2.69000006
   17.25527763   99.71479797    0.51999998    2.69000006
   17.25861168  100.65599823    0.50000000    2.69000006
   17.26166725  105.49400330    0.50000000    2.69000006
   17.26777840  105.49400330    0.50000000    2.71000004
   17.27194405  115.88500214    0.47999999    2.69000006
   17.27499962  104.17299652    0.50000000    2.69000006
   17.27833366  119.33300018    0.50000000    2.71000004
   17.28111076  116.12799835    0.50000000    2.71000004
   17.28194427  108.04799652    0.50000000    2.71000004
   17.28499985  104.93699646    0.52999997    2.69000006
   17.28833199  112.85900116    0.69000000    2.69000006
   17.29166603  111.86299896    0.75000000    2.69000006
   17.29500008  116.52300262    0.55000001    2.69000006
   17.29805565  107.78199768    0.55000001    2.69000006
   17.30138779  109.05899811    0.63000000    2.69000006
   17.30472183  110.73600006    0.69000000    2.69000006
   17.31055450  110.73600006    0.67000002    2.69000006
   17.31472206  107.37999725    0.64999998    2.69000006
   17.31777954  107.40299988    0.69000000    2.69000006
   17.32111168  105.91799927    0.70999998    2.69000006
   17.32444572  111.84700012    0.70999998    2.69000006
   17.32750130  108.94899750    0.76999998    2.69000006
   17.33083344   94.11710358    0.69000000    2.69000006
   17.33416748  103.95999908    0.69000000    2.69000006
   17.33750153  111.50299835    0.67000002    2.69000006
   17.34055710  122.25499725    0.67000002    2.69000006
   17.34388924  102.95899963    0.61000001    2.69000006
   17.34722328  117.61900330    0.58999997    2.69000006
   17.34777832  103.32299805    0.58999997    2.69000006
   17.35333443  103.32299805    0.56999999    2.69000006
   17.35750008   98.83689880    0.64999998    2.69000006
   17.36083412  110.34700012    0.73000002    2.69000006
   17.36388969  104.52200317    0.69000000    2.69000006
   17.38249969  108.66699982    0.55000001    2.69000006
   17.38500023  109.30100250    0.55000001    2.69000006
   17.38833237  106.50800323    0.55000001    2.69000006
   17.39138794   99.01360321    0.55000001    2.69000006
   17.39638901   99.01360321    0.56999999    2.69000006
   17.40055466   99.65419769    0.67000002    2.69000006
   17.40361023  114.87799835    0.69000000    2.69000006
   17.40694427  118.76000214    0.69000000    2.69000006
   17.41027832  100.71199799    0.67000002    2.69000006
   17.41333389  103.39299774    0.69000000    2.69000006
   17.41583252  105.54000092    0.69000000    2.69000006
   17.41722107  108.18900299    0.69000000    2.69000006
   17.42027664  116.32199860    0.69000000    2.69000006
   17.42361069  114.81300354    0.64999998    2.69000006
   17.42694473  106.47899628    0.67000002    2.69000006
   17.43000031  114.14199829    0.70999998    2.69000006
   17.43333244  100.89900208    0.70999998    2.69000006
   17.43916512  100.89900208    0.67000002    2.69000006
   17.44333267  114.96499634    0.69000000    2.69000006
   17.44666672  108.42900085    0.55000001    2.69000006
   17.44916534  104.54399872    0.55000001    2.69000006
   17.45027924  114.48699951    0.55000001    2.69000006
   17.45333481  114.43399811    0.55000001    2.69000006
   17.45666695  105.91300201    0.55000001    2.69000006
   17.46000099  114.32299805    0.55000001    2.69000006
   17.46305656  111.42700195    0.55000001    2.69000006
   17.46638870  123.81099701    0.55000001    2.69000006
   17.46972275  109.84799957    0.56999999    2.69000006
   17.47277832  114.91600037    0.56999999    2.69000006
   17.47611237  107.90499878    0.58999997    2.69000006
   17.48194504  107.90499878    0.58999997    2.69000006
   17.48611069  108.44000244    0.61000001    2.69000006
   17.48944473  111.49800110    0.63000000    2.69000006
   17.49250031  103.92500305    0.61000001    2.69000006
   17.49583435  105.15499878    0.56999999    2.69000006
   17.49916649  110.33000183    0.56999999    2.69000006
   17.50222206  101.85500336    0.56999999    2.69000006
   17.50555611  103.33000183    0.56999999    2.69000006
   17.50861168  102.08100128    0.58999997    2.69000006
   17.51194382  106.26200104    0.61000001    2.67000008
   17.51527786  100.01499939    0.58999997    2.69000006
   17.51694489  111.80699921    0.58999997    2.69000006
   17.51888847  107.84600067    0.61000001    2.69000006
   17.52499962  107.84600067    0.58999997    2.69000006
   17.52916718  102.39399719    0.58999997    2.69000006
   17.53222275  106.98899841    0.56999999    2.69000006
   17.53555489  100.03299713    0.56999999    2.69000006
   17.53861046  107.16000366    0.56999999    2.69000006
   17.54194450  103.38899994    0.58999997    2.69000006
   17.54527664   95.93409729    0.63000000    2.69000006
   17.54833221  110.96399689    0.63000000    2.69000006
   17.55055428   96.19539642    0.64999998    2.69000006
   17.55194283   93.45770264    0.64999998    2.69000006
   17.55527687  108.86399841    0.69000000    2.69000006
   17.55861092   96.63590240    0.73000002    2.69000006
   17.56166649  108.07900238    0.76999998    2.69000006
   17.56777954  108.07900238    0.86000001    2.69000006
   17.57194519  102.32299805    0.92000002    2.69000006
   17.57500076  107.47299957    0.92000002    2.69000006
   17.57833481  107.27300262    0.92000002    2.69000006
   17.58166695  115.84899902    0.92000002    2.67000008
   17.58388901  101.36599731    0.92000002    2.69000006
   17.58527756  100.97299957    0.92000002    2.69000006
   17.58833313  113.11799622    0.92000002    2.69000006
   17.59166718  113.23300171    0.81999999    2.69000006
   17.59500122  113.01100159    0.81999999    2.69000006
   17.59805679  111.70200348    0.81999999    2.69000006
   17.60138893  103.26000214    0.81999999    2.69000006
   17.60472298  114.65299988    0.89999998    2.69000006
   17.61055565  114.65299988    1.11000001    2.69000006
   17.61472321  109.04399872    1.13000000    2.69000006
   17.61722183  107.23500061    1.21000004    2.67000008
   17.61833382   97.63179779    1.36000001    2.69000006
   17.62138939  103.25700378    1.51999998    2.69000006
   17.62472153  102.51699829    1.63000000    2.69000006
   17.62805557   98.41059875    1.69000006    2.69000006
   17.63111115  116.20500183    1.71000004    2.67000008
   17.63444519  103.17800140    1.75000000    2.67000008
   17.63750076  100.41999817    2.21000004    2.69000006
   17.64083290  112.05599976    2.28999996    2.69000006
   17.64416695  106.61100006    2.30999994    2.67000008
   17.64722252  104.34100342    2.40000010    2.67000008
   17.65333366  104.34100342    2.75000000    2.67000008
   17.65749931   96.49659729    2.78999996    2.69000006
   17.66083336  104.54599762    2.82999992    2.69000006
   17.66388893   97.93419647    2.93000007    2.67000008
   17.66722107  104.60900116    3.03999996    2.67000008
   17.67055511  113.75499725    3.25000000    2.67000008
   17.67361069  105.00800323    3.41000009    2.67000008
   17.67694473  107.82299805    3.45000005    2.67000008
   17.68027687  107.74800110    3.39000010    2.67000008
   17.68333244  101.94699860    3.28999996    2.67000008
   17.68444443  111.92500305    3.28999996    2.67000008
   17.68694305   97.99330139    3.26999998    2.67000008
   17.69027710  102.05899811    3.36999989    2.67000008
   17.69638824  102.05899811    3.68000007    2.67000008
   17.70027924  103.03600311    3.95000005    2.67000008
   17.70361137   96.53910065    4.09999990    2.66000009
   17.70694542  100.75499725    4.17999983    2.66000009
   17.71000099  101.63500214    4.09999990    2.67000008
   17.71333504  105.01899719    3.99000001    2.67000008
   17.71666718  106.18399811    3.93000007    2.66000009
   17.71777916  101.25099945    3.91000009    2.67000008
   17.72000122  102.07299805    3.86999989    2.67000008
   17.72333336   96.93720245    3.76999998    2.67000008
   17.72666740  100.38400269    3.66000009    2.67000008
   17.72972298  107.51000214    3.39000010    2.67000008
   17.73305511  101.18499756    3.07999992    2.67000008
   17.73916626  101.18499756    2.59999990    2.69000006
   17.74333382  108.77999878    2.64000010    2.67000008
   17.74638939  110.83799744    2.59999990    2.67000008
   17.74972153   99.04460144    2.53999996    2.66000009
   17.75111198  105.81800079    2.53999996    2.67000008
   17.75333405  106.15499878    2.57999992    2.67000008
   17.75666618  108.94100189    2.59999990    2.69000006
   17.75972176  107.43900299    2.32999992    2.69000006
   17.76305580  107.16000366    2.07999992    2.67000008
   17.76611137  107.04199982    2.17000008    2.69000006
   17.76944351   96.85019684    2.25000000    2.67000008
   17.77277756  106.08899689    2.13000011    2.69000006
   17.77583313  104.75399780    2.07999992    2.67000008
   17.78194427  104.75399780    2.46000004    2.69000006
   17.78610992  102.28299713    2.84999990    2.67000008
   17.78944397  106.25000000    3.01999998    2.67000008
   17.79249954  101.81600189    3.03999996    2.67000008
   17.79583359  100.25499725    3.20000005    2.67000008
   17.79888916  101.04299927    3.28999996    2.67000008
   17.80222130  103.69300079    3.32999992    2.67000008
   17.80555534  103.58100128    3.25000000    2.67000008
   17.80888748  107.05999756    3.14000010    2.67000008
   17.81194305   98.83740234    3.05999994    2.67000008
   17.81527710   98.16549683    2.78999996    2.67000008
   17.81805611  104.44899750    2.69000006    2.66000009
   17.81888962  106.54900360    2.66000009    2.67000008
   17.82472229  106.54900360    2.64000010    2.67000008
   17.82888985  107.04000092    2.53999996    2.69000006
   17.83222389  101.80500031    2.11999989    2.67000008
   17.83527756  114.28299713    2.00000000    2.67000008
   17.83861160  111.70800018    1.94000006    2.69000006
   17.84194565   94.05619812    1.73000002    2.67000008
   17.84500122  100.49500275    1.69000006    2.67000008
   17.84833336  115.66300201    1.48000002    2.67000008
   17.85138893   98.74749756    1.46000004    2.67000008
   17.85194397  111.47200012    1.46000004    2.67000008
   17.85527802  111.39800262    1.23000002    2.67000008
   17.85833359  104.05400085    1.25000000    2.67000008
   17.86166763  100.73999786    1.33000004    2.67000008
   17.86777878  100.73999786    1.38000000    2.69000006
   17.87194443  101.23100281    1.34000003    2.67000008
   17.87500000  104.85700226    1.34000003    2.67000008
   17.87833405  105.96700287    1.36000001    2.67000008
   17.88138962  109.24299622    1.36000001    2.67000008
   17.88472176  102.08399963    1.34000003    2.67000008
   17.88500023   97.75399780    1.34000003    2.67000008
   17.88833237  109.18399811    1.23000002    2.67000008
   17.89138794  101.74600220    1.09000003    2.67000008
   17.89472198  102.31500244    1.05999994    2.67000008
   17.89805603  104.95700073    1.05999994    2.67000008
   17.90111160   94.15879822    1.07000005    2.67000008
   17.90444374   95.75869751    1.13000000    2.67000008
   17.91055489   95.75869751    1.23000002    2.67000008
   17.91472244  107.72699738    1.39999998    2.69000006
   17.91777802  112.65599823    1.46000004    2.67000008
   17.91833305  104.68000031    1.46000004    2.67000008
   17.92166519   98.43750000    1.51999998    2.66000009
   17.92472076  105.97899628    1.66999996    2.67000008
   17.92805481  111.69999695    1.63000000    2.67000008
   17.93138885  101.47599792    1.33000004    2.69000006
   17.93444443   99.78440094    1.14999998    2.67000008
   17.93777657   90.04409790    1.13000000    2.67000008
   17.94111061   98.69830322    1.13000000    2.67000008
   17.94416618   94.75800323    1.13000000    2.67000008
   17.94749832  103.76699829    1.11000001    2.67000008
   17.95333481  103.76699829    1.09000003    2.67000008
   17.95750046  108.05999756    1.11000001    2.67000008
   17.96083450  107.99700165    1.14999998    2.67000008
   17.96389008   99.19139862    1.19000006    2.67000008
   17.96722221  103.72100067    1.25000000    2.67000008
   17.97055626   97.89620209    1.34000003    2.67000008
   17.97361183   98.25910187    1.46000004    2.67000008
   17.97694588   99.34010315    1.46000004    2.67000008
   17.98000145  109.34999847    1.61000001    2.69000006
   17.98333359  103.87500000    1.73000002    2.67000008
   17.98500061  111.36699677    1.86000001    2.67000008
   17.98694420   92.99189758    1.94000006    2.67000008
   17.99027824  102.03800201    2.09999990    2.66000009
   17.99611092  102.03800201    2.26999998    2.67000008
   18.00027847  103.95999908    2.39000010    2.67000008
   18.00361061  110.20300293    2.44000006    2.67000008
   18.00666618  102.32700348    2.59999990    2.67000008
   18.01000023  105.44799805    2.71000004    2.67000008
   18.01333427  110.91999817    2.73000002    2.66000009
   18.01638794  103.84899902    2.76999998    2.66000009
   18.01833344  116.34600067    2.76999998    2.67000008
   18.02027702  101.89199829    2.76999998    2.66000009
   18.02333260  104.82099915    2.71000004    2.66000009
   18.02666664  114.68699646    2.64000010    2.67000008
   18.03000069  110.41899872    2.55999994    2.67000008
   18.03305435   96.51180267    2.51999998    2.69000006
   18.03916550   96.51180267    2.64000010    2.67000008
   18.04305458  122.40100098    2.71000004    2.67000008
   18.04638863   99.32980347    2.75000000    2.67000008
   18.04972076  102.40699768    2.73000002    2.67000008
   18.05166626  111.01499939    2.71000004    2.66000009
   18.05333328  100.18000031    2.73000002    2.66000009
   18.05638885  106.42400360    2.78999996    2.66000009
   18.05972099  104.34200287    2.82999992    2.66000009
   18.06305504  119.75000000    2.84999990    2.66000009
   18.06611061  109.52400208    2.82999992    2.67000008
   18.06944466  118.89399719    2.75000000    2.66000009
   18.07277870  109.57099915    2.66000009    2.66000009
   18.07583427  107.09500122    2.57999992    2.66000009
   18.08194542  107.09500122    2.76999998    2.67000008
   18.08611107  115.48300171    2.91000009    2.66000009
   18.08916664  109.44599915    2.98000002    2.66000009
   18.09250069  124.21499634    3.07999992    2.66000009
   18.09583473  114.41100311    3.18000007    2.64000010
   18.09889030  108.12799835    3.30999994    2.66000009
   18.10222244  110.69599915    3.43000007    2.66000009
   18.10527802  103.05999756    3.50000000    2.64000010
   18.10861206  106.48500061    3.57999992    2.66000009
   18.11194420  102.92500305    3.66000009    2.66000009
   18.11499977  114.69499969    3.70000005    2.66000009
   18.11833382  111.73699951    3.51999998    2.66000009
   18.11888885  110.38200378    3.51999998    2.66000009
   18.12472153  110.38200378    3.32999992    2.66000009
   18.12888908  123.06500244    3.32999992    2.66000009
   18.13222313  111.69000244    3.36999989    2.66000009
   18.13527679  135.67100525    3.36999989    2.66000009
   18.13861084  107.80000305    3.32999992    2.66000009
   18.14166641  116.49500275    3.32999992    2.66000009
   18.14500046  113.03900146    3.30999994    2.66000009
   18.14833260  117.74500275    3.26999998    2.66000009
   18.15138817  131.60099792    3.23000002    2.66000009
   18.15222168  126.51000214    3.20000005    2.66000009
   18.15499878  123.83000183    3.00000000    2.66000009
   18.15833282  113.56099701    2.80999994    2.66000009
   18.16166687  123.08999634    2.76999998    2.66000009
   18.16749954  123.08999634    2.80999994    2.67000008
   18.17166519  122.26799774    2.93000007    2.66000009
   18.17499924  110.62500000    2.98000002    2.67000008
   18.17805481  116.61199951    3.00000000    2.66000009
   18.18138885  127.50700378    3.03999996    2.66000009
   18.18472099  105.76300049    3.11999989    2.64000010
   18.18555450  121.37500000    3.16000009    2.64000010
   18.18805504  121.43800354    3.21000004    2.64000010
   18.19138718  118.08499908    3.25000000    2.64000010
   18.19472122  127.91000366    3.26999998    2.64000010
   18.19777679  104.73000336    3.36999989    2.66000009
   18.20111275  116.99600220    3.45000005    2.64000010
   18.20416832  123.59200287    3.48000002    2.66000009
   18.21055603  123.59200287    3.34999990    2.66000009
   18.21444511  123.06800079    3.26999998    2.67000008
   18.21777916  123.91200256    3.23000002    2.66000009
   18.21888924  116.36299896    3.18000007    2.67000008
   18.22166634  103.90299988    3.01999998    2.67000008
   18.22472191  112.44799805    2.78999996    2.67000008
   18.22805595  125.24700165    2.57999992    2.66000009
   18.23139000  119.24800110    2.28999996    2.66000009
   18.23444557  118.92800140    2.07999992    2.66000009
   18.23777771  127.48899841    1.88000000    2.67000008
   18.24083328  123.94799805    1.69000006    2.67000008
   18.24416733  126.87200165    1.51999998    2.66000009
   18.24749947  125.57599640    1.38000000    2.66000009
   18.25333405  125.57599640    1.30999994    2.66000009
   18.25749969  133.48699951    1.25000000    2.66000009
   18.26055527  112.50599670    1.23000002    2.67000008
   18.26388931  129.05499268    1.23000002    2.66000009
   18.26694489   91.98490143    1.23000002    2.67000008
   18.27027702  140.71800232    1.23000002    2.67000008
   18.27361107  133.89300537    1.23000002    2.67000008
   18.27666664  125.76200104    1.23000002    2.67000008
   18.28000069  125.88400269    1.23000002    2.66000009
   18.28333282  117.35199738    1.26999998    2.67000008
   18.28555489  119.72599792    1.25000000    2.67000008
   18.28666687  128.75100708    1.25000000    2.67000008
   18.28999901  124.31800079    1.25000000    2.67000008
   18.29611015  124.31800079    1.16999996    2.66000009
   18.30027771  128.58000183    1.14999998    2.67000008
   18.30360985  125.15499878    1.14999998    2.66000009
   18.30666542  109.91699982    1.13000000    2.66000009
   18.30999947  114.29900360    1.09000003    2.67000008
   18.31305504  109.62300110    1.09000003    2.67000008
   18.31638718  131.36900330    1.07000005    2.67000008
   18.31888962  132.45399475    1.07000005    2.66000009
   18.32000160  118.23699951    1.07000005    2.66000009
   18.32333374  138.82299805    1.05999994    2.66000009
   18.32666779  137.37100220    1.05999994    2.67000008
   18.32972336  134.36500549    1.03999996    2.67000008
   18.33305550  151.09300232    1.00000000    2.67000008
   18.33889008  151.09300232    0.98000002    2.67000008
   18.34305573  136.45300293    1.00000000    2.67000008
   18.34638977  112.98999786    1.00000000    2.66000009
   18.34944534  125.38400269    1.00000000    2.67000008
   18.35222244  123.00499725    1.01999998    2.67000008
   18.35333443  125.12300110    1.01999998    2.67000008
   18.35639000  117.19499969    1.05999994    2.67000008
   18.35972214  111.08599854    1.21000004    2.67000008
   18.36277771  104.56199646    1.38000000    2.67000008
   18.36611176  128.43200684    1.60000002    2.67000008
   18.36944389  130.84800720    1.91999996    2.67000008
   18.37249947  138.88499451    3.20000005    2.67000008
   18.37583351  134.01600647    3.89000010    2.69000006
   18.38194466  134.01600647    4.90999985    2.69000006
   18.40027809  134.13999939    4.90999985    2.67000008
   18.40333366  139.02099609    4.90999985    2.67000008
   18.40666580  112.57599640    4.90999985    2.67000008
   18.40999985  139.30299377    4.90999985    2.67000008
   18.41305542  126.74299622    4.90999985    2.69000006
   18.41638756  127.62500000    4.90999985    2.69000006
   18.41972160  134.31599426    4.90999985    2.69000006
   18.42499924  134.31599426    4.90999985    2.69000006
   18.42888832  137.57400513    4.90999985    2.67000008
   18.43222237  130.67700195    4.90999985    2.69000006
   18.43333244  129.78599548    4.90999985    2.69000006
   18.43583298  126.30699921    4.90999985    2.69000006
   18.43916512  123.96099854    4.90999985    2.69000006
   18.44249916  137.13400269    4.90999985    2.69000006
   18.44555473  120.01599884    4.90999985    2.69000006
   18.44888878  150.53500366    4.90999985    2.67000008
   18.45194435  110.52700043    4.90999985    2.66000009
   18.45527840  122.76899719    4.90999985    2.66000009
   18.45861244  129.49600220    4.90999985    2.66000009
   18.46166801  117.37200165    4.90999985    2.66000009
   18.46777916  117.37200165    4.90999985    2.67000008
   18.47194481  121.23999786    4.90999985    2.67000008
   18.47500038  121.72899628    4.90999985    2.66000009
   18.47833443  133.01400757    4.90999985    2.64000010
   18.48166656  120.95400238    4.90999985    2.64000010
   18.48472214  127.96600342    4.90999985    2.66000009
   18.48805618  110.87200165    4.90999985    2.64000010
   18.49111176  132.15400696    4.90999985    2.64000010
   18.49444389  115.27300262    4.90999985    2.64000010
   18.49777794  131.90100098    4.90999985    2.64000010
   18.50000000  108.03600311    4.90999985    2.61999989
   18.50111198  113.94000244    4.90999985    2.61999989
   18.50444412  102.52700043    4.90999985    2.61999989
   18.51055527  102.52700043    4.90999985    2.61999989
   18.51472282  123.33000183    4.90999985    2.64000010
   18.51805496  115.12500000    4.90999985    2.64000010
   18.52111053  115.91200256    4.90999985    2.64000010
   18.52444458  106.00099945    4.90999985    2.64000010
   18.52750015  126.60199738    4.90999985    2.64000010
   18.53083229  101.77600098    4.90999985    2.59999990
   18.53333282  126.02999878    4.90999985    2.61999989
   18.53444481  113.38700104    4.90999985    2.61999989
   18.53777695  124.27100372    4.90999985    2.66000009
   18.54111099  109.49800110    4.90999985    2.66000009
   18.54416656  116.93900299    4.90999985    2.64000010
   18.54749870  119.85500336    4.90999985    2.66000009
   18.55333328  119.85500336    4.90999985    2.66000009
   18.55749893  108.48600006    4.90999985    2.66000009
   18.56083298  118.15799713    4.90999985    2.66000009
   18.56388855  121.49099731    4.90999985    2.64000010
   18.56666756  103.13800049    4.90999985    2.61999989
   18.56777954  121.30100250    4.86999989    2.61999989
   18.57083511  107.45899963    4.78000021    2.64000010
   18.57416725  111.06099701    4.67999983    2.64000010
   18.57722282  112.18900299    4.40999985    2.66000009
   18.58055687  114.22299957    3.86999989    2.64000010
   18.58388901  112.91999817    3.26999998    2.66000009
   18.58694458  116.80599976    3.03999996    2.66000009
   18.59027863  109.37200165    2.94000006    2.66000009
   18.59638977  109.37200165    3.18000007    2.61999989
   18.60027885  121.60600281    3.43000007    2.66000009
   18.60361099  109.64600372    3.80999994    2.64000010
   18.60694504  108.92800140    4.05999994    2.61999989
   18.61000061  114.65899658    4.17999983    2.64000010
   18.61333466  116.68599701    4.30999994    2.64000010
   18.61638832  111.45600128    4.07999992    2.64000010
   18.61972237  174.29100037    3.66000009    2.61999989
   18.62305641  111.83999634    3.39000010    2.61999989
   18.62611198  110.74600220    3.28999996    2.64000010
   18.62944412  108.45600128    3.18000007    2.64000010
   18.63277817  102.10099792    2.96000004    2.64000010
   18.63333321  118.79000092    2.86999989    2.66000009
   18.63916588  118.79000092    2.32999992    2.66000009
   18.64333344  113.90799713    2.01999998    2.64000010
   18.64638901  113.79699707    2.00000000    2.64000010
   18.64972115  115.93499756    2.15000010    2.64000010
   18.65305519  113.34600067    2.23000002    2.61999989
   18.65611076  103.32700348    2.32999992    2.64000010
   18.65944481  116.43399811    2.39000010    2.64000010
   18.66250038  110.01899719    2.61999989    2.66000009
   18.66583252  118.17099762    2.53999996    2.64000010
   18.66666603  114.48200226    2.51999998    2.64000010
   18.66944313  116.13200378    2.67000008    2.64000010
   18.67277718  116.78500366    3.14000010    2.64000010
   18.67611122  113.97200012    3.72000003    2.64000010
   18.68194389  113.97200012    4.67999983    2.61999989
   18.68610954  109.19999695    4.90999985    2.66000009
   18.68916512  106.30799866    4.90999985    2.66000009
   18.69249916  113.44599915    4.90999985    2.59999990
   18.69583321  103.68000031    4.90999985    2.55999994
   18.69888878  121.20899963    4.90999985    2.48000002
   18.70000076  112.97899628    4.90999985    2.50000000
   18.70250130  121.29599762    4.90999985    2.53999996
   18.70583344  112.37400055    4.90999985    2.55999994
   18.70916748  113.86900330    4.90999985    2.51999998
   18.71222305  137.30099487    4.90999985    2.48000002
   18.71555710  115.99700165    4.90999985    2.53999996
   18.71888924  140.63400269    4.90999985    2.42000008
   18.72472191  140.63400269    4.90999985    2.51999998
   18.72888947  109.02799988    4.90999985    2.61999989
   18.73222351  110.76499939    4.90999985    2.66000009
   18.73333359  106.80500031    4.90999985    2.64000010
   18.73555565  115.30000305    4.90999985    2.66000009
   18.73888969  106.00900269    4.90999985    2.66000009
   18.74222183  116.52200317    4.90999985    2.53999996
   18.74527740  114.98000336    4.90999985    2.64000010
   18.74861145  110.78700256    4.90999985    2.55999994
   18.75194359  130.19099426    4.90999985    2.46000004
   18.75499916  126.37699890    4.90999985    2.42000008
   18.75833321  115.90299988    4.90999985    2.53999996
   18.76138878  114.14600372    4.90999985    2.61999989
   18.76777840  114.14600372    4.90999985    2.51999998
   18.77166557  110.97799683    4.90999985    2.61999989
   18.77499962  113.11799622    4.90999985    2.48000002
   18.77833366  130.27999878    4.90999985    2.44000006
   18.78138924  134.74499512    4.90999985    2.40000010
   18.78472137  114.61100006    4.90999985    2.40000010
   18.78805542  122.09899902    4.90999985    2.51999998
   18.79111099  117.36499786    4.90999985    2.61999989
   18.79444313  105.13300323    4.90999985    2.59999990
   18.79749870  107.23300171    4.90999985    2.59999990
   18.79999924  111.31800079    4.90999985    2.57999992
   18.80111122  104.72000122    4.90999985    2.57999992
   18.80444336  173.75399780    4.90999985    2.57999992
   18.81055450  173.75399780    4.90999985    2.57999992
   18.81472206  110.73699951    4.90999985    2.53999996
   18.81777954  129.44099426    4.90999985    2.55999994
   18.82111168  114.17900085    4.90999985    2.59999990
   18.82416725  110.22799683    4.90999985    2.64000010
   18.82750130  116.58799744    4.90999985    2.66000009
   18.83083344  106.05799866    4.90999985    2.66000009
   18.83333397   99.63349915    4.90999985    2.66000009
   18.83416748  107.16300201    4.90999985    2.67000008
   18.83750153  107.41100311    4.90999985    2.61999989
   18.84083366  104.87599945    4.90999985    2.59999990
   18.84388924  112.00299835    4.90999985    2.53999996
   18.84722328  119.91799927    4.90999985    2.53999996
   18.85333443  119.91799927    4.90999985    2.48000002
   18.85750008  123.86799622    4.90999985    2.48000002
   18.86055565  107.76699829    4.90999985    2.51999998
   18.86388969  123.15899658    4.90999985    2.50000000
   18.86666679  121.66400146    4.90999985    2.50000000
   18.86750031  112.63600159    4.90999985    2.50000000
   18.87083435  115.26799774    4.90999985    2.48000002
   18.87416649  113.91799927    4.90999985    2.44000006
   18.87722206  118.36599731    4.90999985    2.42000008
   18.88055611  115.74500275    4.90999985    2.39000010
   18.88388824  110.89299774    4.90999985    2.42000008
   18.88694382  109.31999969    4.90999985    2.44000006
   18.89027786  126.45300293    4.90999985    2.46000004
   18.89611053  126.45300293    4.90999985    2.46000004
   18.90027809  117.87899780    4.90999985    2.48000002
   18.90361023  119.30500031    4.90999985    2.44000006
   18.90694427  138.55400085    4.90999985    2.42000008
   18.90999985  118.81700134    4.90999985    2.40000010
   18.91333389  110.94799805    4.90999985    2.39000010
   18.91666603  127.58200073    4.90999985    2.39000010
   18.91972160  121.88099670    4.90999985    2.44000006
   18.92305565  109.23400116    4.90999985    2.46000004
   18.92611122  108.90000153    4.90999985    2.53999996
   18.92944336  107.49700165    4.90999985    2.57999992
   18.93277740  111.58200073    4.90999985    2.61999989
   18.93333244  109.54900360    4.90999985    2.61999989
   18.93888855  109.54900360    4.90999985    2.61999989
   18.94305420  108.51699829    4.90999985    2.64000010
   18.94638824  112.31700134    4.90999985    2.64000010
   18.94972038  115.84899902    4.90999985    2.64000010
   18.95277786  113.52100372    4.90999985    2.64000010
   18.95611191  106.47599792    4.90999985    2.61999989
   18.95916748  115.84999847    4.90999985    2.61999989
   18.96250153  109.24600220    4.90999985    2.61999989
   18.96583366   96.48539734    4.90999985    2.61999989
   18.96666718  105.22200012    4.90999985    2.61999989
   18.96916771  103.75000000    4.90999985    2.64000010
   18.97249985  100.30000305    4.90999985    2.61999989
   18.97583389  106.17800140    4.90999985    2.61999989
   18.98222351  106.17800140    4.90999985    2.57999992
   18.98638916  103.81600189    4.90999985    2.57999992
   18.98972321  105.87500000    4.90999985    2.57999992
   18.99277878  103.40399933    4.90999985    2.55999994
   18.99611092  110.45300293    4.90999985    2.57999992
   18.99944496  106.22100067    4.90999985    2.55999994
   19.00000000  107.99600220    4.90999985    2.55999994
   19.00305557  109.21900177    4.90999985    2.57999992
   19.00611115  113.90499878    4.90999985    2.57999992
   19.00944519  106.79799652    4.90999985    2.57999992
   19.01250076  111.71299744    4.90999985    2.55999994
   19.01583290  120.58699799    4.90999985    2.57999992
   19.01916695  107.50700378    4.90999985    2.57999992
   19.02472115  107.50700378    4.90999985    2.57999992
   19.02888870  110.66100311    4.90999985    2.59999990
   19.03194427  104.42199707    4.90999985    2.59999990
   19.03333282  117.89800262    4.90999985    2.59999990
   19.03583336  106.38099670    4.90999985    2.59999990
   19.03888893  104.54699707    4.90999985    2.59999990
   19.04222107  109.13899994    4.90999985    2.59999990
   19.04527664  116.43499756    4.90999985    2.61999989
   19.04861069  114.62999725    4.90999985    2.61999989
   19.05194283  134.82099915    4.90999985    2.61999989
   19.05499840  130.10499573    4.90999985    2.61999989
   19.05833244  145.97599792    4.90999985    2.61999989
   19.06166649  111.06099701    4.90999985    2.61999989
   19.06750107  111.06099701    4.90999985    2.61999989
   19.07166672  128.11399841    4.90999985    2.61999989
   19.07500076  131.42399597    4.90999985    2.61999989
   19.07805634  131.03199768    4.90999985    2.61999989
   19.08139038  123.42099762    4.90999985    2.64000010
   19.08472252  124.12400055    4.90999985    2.66000009
   19.08777809  115.50499725    4.90999985    2.66000009
   19.09111214  132.71600342    4.90999985    2.66000009
   19.09416771  141.65400696    4.90999985    2.64000010
   19.09749985  115.90699768    4.90999985    2.66000009
   19.10000038  113.01899719    4.90999985    2.64000010
   19.10111237  121.18399811    4.90999985    2.64000010
   19.10416794  126.03500366    4.90999985    2.64000010
   19.11027908  126.03500366    4.90999985    2.64000010
   19.11444473  107.45600128    4.90999985    2.61999989
   19.11777878  100.92099762    4.90999985    2.61999989
   19.12111092  131.89100647    4.90999985    2.57999992
   19.12416649  118.27899933    4.90999985    2.59999990
   19.12750053  106.41699982    4.90999985    2.59999990
   19.13055611  113.71800232    4.90999985    2.59999990
   19.13333321  119.02500153    4.90999985    2.57999992
   19.13444519  124.70099640    4.90999985    2.59999990
   19.13750076  123.87899780    4.90999985    2.59999990
   19.14083290  110.05300140    4.90999985    2.59999990
   19.14388847  116.72599792    4.90999985    2.59999990
   19.14722252  109.83999634    4.90999985    2.61999989
   19.15333366  109.83999634    4.90999985    2.59999990
   19.15749931  108.81600189    4.90999985    2.59999990
   19.16055489  104.68399811    4.90999985    2.61999989
   19.16388893  103.40599823    4.90999985    2.59999990
   19.16666603  100.96399689    4.90999985    2.59999990
   19.16749954   96.65589905    4.90999985    2.59999990
   19.17055511  109.15699768    4.90999985    2.59999990
   19.17388916  107.58499908    4.90999985    2.57999992
   19.17694473  107.94599915    4.90999985    2.59999990
   19.18027687  104.52400208    4.90999985    2.57999992
   19.18361092  119.63700104    4.90999985    2.57999992
   19.18666649  124.07099915    4.90999985    2.57999992
   19.18999863  119.48999786    4.90999985    2.57999992
   19.19610977  119.48999786    4.90999985    2.61999989
   19.20027924  115.11399841    4.90999985    2.53999996
   19.20333481  107.25299835    4.90999985    2.59999990
   19.20666695  110.07700348    4.90999985    2.59999990
   19.21000099  110.26699829    4.90999985    2.61999989
   19.21305656  121.30500031    4.90999985    2.59999990
   19.21638870  117.16799927    4.90999985    2.59999990
   19.21972275  114.62500000    4.90999985    2.53999996
   19.22277832  121.20899963    4.90999985    2.53999996
   19.22611237  123.68699646    4.90999985    2.51999998
   19.22916794  142.37899780    4.90999985    2.40000010
   19.23250008  125.93599701    4.90999985    2.42000008
   19.23333359  119.47899628    4.90999985    2.44000006
   19.23888969  119.47899628    4.90999985    2.44000006
   19.24305534  129.18299866    4.90999985    2.44000006
   19.24638939  128.80499268    4.90999985    2.42000008
   19.24944496  128.81100464    4.90999985    2.42000008
   19.25277710  152.79699707    4.90999985    2.40000010
   19.25611115  127.19699860    4.90999985    2.34999990
   19.25944519  126.13300323    4.90999985    2.40000010
   19.26250076  144.10600281    4.90999985    2.36999989
   19.26583290  142.77400208    4.90999985    2.25000000
   19.26666641  150.72599792    4.90999985    2.25000000
   19.26944351  142.63299561    4.90999985    2.25000000
   19.27249908  174.67300415    4.90999985    2.23000002
   19.27583313  164.31799316    4.90999985    2.19000006
   19.28166580  164.31799316    4.90999985    2.13000011
   19.28583336  282.74499512    4.90999985    2.09999990
   19.28916550  193.74299622    4.90999985    1.96000004
   19.29249954  233.93699646    4.90999985    1.98000002
   19.29555511  311.67199707    4.90999985    1.89999998
   19.29888916  307.54400635    4.90999985    1.80999994
   19.29999924  188.98800659    4.90999985    1.80999994
   19.30249977  178.38600159    4.90999985    1.76999998
   19.30555534  151.82800293    4.90999985    1.76999998
   19.30888748  125.01699829    4.90999985    1.73000002
   19.31222153  154.07099915    4.90999985    1.76999998
   19.31527710  172.10200500    4.90999985    1.78999996
   19.31861115  106.09100342    4.90999985    1.71000004
   19.32472229  106.09100342    4.90999985    1.73000002
   19.32888985   65.61640167    4.90999985    1.66999996
   19.33194542   -1.00000000   -1.00000000   -1.00000000
   19.33333397  142.61900330    4.90999985    1.60000002
   19.33555603  136.93499756    4.90999985    1.66999996
   19.33861160  100.98200226    4.90999985    1.69000006
   19.34194565  171.83700562    4.90999985    1.75000000
   19.34527779  263.38198853    4.90999985    1.86000001
   19.34861183  312.91299438    4.90999985    1.86000001
   19.35166740  355.39999390    4.90999985    1.89999998
   19.35499954  332.53201294    4.90999985    1.89999998
   19.35805511  248.22900391    4.90999985    1.80999994
   19.36138916  330.60800171    4.90999985    1.76999998
   19.36750031  330.60800171    4.90999985    2.05999994
   19.37166595  137.98100281    4.90999985    2.23000002
   19.37472153  138.03100586    4.90999985    2.21000004
   19.37805557  158.54100037    4.90999985    2.28999996
   19.38138962  160.98899841    4.90999985    2.26999998
   19.38444519  207.97099304    4.90999985    2.21000004
   19.38777733  163.44099426    4.90999985    2.15000010
   19.39111137  177.42500305    4.90999985    2.17000008
   19.39416695  177.92900085    4.90999985    2.11999989
   19.39749908  187.09500122    4.90999985    2.11999989
   19.39999962  214.99800110    4.90999985    2.17000008
   19.42055511  214.99800110    4.90999985    1.86000001
   19.42472076  302.35198975    4.90999985    1.86000001
   19.42805481  337.23999023    4.90999985    1.86000001
   19.43111038  343.67498779    4.90999985    1.85000002
   19.43333244  347.78698730    4.90999985    1.86000001
   19.43499947  365.03298950    4.90999985    1.86000001
   19.43833160  435.19500732    4.90999985    1.89999998
   19.44027710  344.50900269    4.90999985    1.94000006
   19.44027710  177.92900085    4.90999985    2.11999989
   19.44027710  187.09500122    4.90999985    2.11999989
   19.44027710  302.35198975    4.90999985    1.86000001
   19.44027710  337.23999023    4.90999985    1.86000001
   19.44055557  343.67498779    4.90999985    1.85000002
   19.44055557  365.03298950    4.90999985    1.86000001
   19.44055557  435.19500732    4.90999985    1.89999998
   19.44055557  163.44099426    4.90999985    2.15000010
   19.44055557  177.42500305    4.90999985    2.17000008
   19.44277763  416.49499512    4.90999985    1.96000004
   19.44472122  297.55398560    4.90999985    1.94000006
   19.44666672  244.42500305    4.90999985    1.94000006
   19.44972038  357.09500122    4.90999985    1.94000006
   19.45305634  357.85998535    4.90999985    1.88000000
   19.45639038  318.21301270    4.90999985    1.94000006
   19.45944595  356.01501465    4.90999985    1.98000002
   19.46527863  356.01501465    4.90999985    2.07999992
   19.46944427  455.33300781    4.90999985    2.01999998
   19.47138977  449.97299194    4.90999985    2.00000000
   19.47277832  409.60198975    4.90999985    1.98000002
   19.47416687  447.15798950    4.90999985    1.96000004
   19.47555542  263.61700439    4.90999985    1.96000004
   19.47555542  244.42500305    4.90999985    1.94000006
   19.47555542  357.09500122    4.90999985    1.94000006
   19.47583389  357.85998535    4.90999985    1.88000000
   19.47583389  318.21301270    4.90999985    1.94000006
   19.47583389  356.01501465    4.90999985    1.98000002
   19.47583389  455.33300781    4.90999985    2.01999998
   19.47638893  382.49200439    4.90999985    1.91999996
   19.47972298  414.69000244    4.90999985    1.88000000
   19.48166656   80.21179962    4.90999985    1.83000004
   19.48166656  382.49200439    4.90999985    1.91999996
   19.48166656  414.69000244    4.90999985    1.88000000
   19.48361206   81.93009949    4.90999985    1.73000002
   19.48694420   89.04440308    4.90999985    1.64999998
   19.49027824   91.36399841    4.90999985    1.69000006
   19.49333382   79.23699951    4.90999985    1.66999996
   19.49666786   83.76329803    4.90999985    1.64999998
   19.50250053   83.76329803    4.90999985    1.55999994
   19.50666618   -1.00000000    4.90999985    1.51999998
   19.50972176   -1.00000000    4.90999985    1.44000006
   19.51305580   -1.00000000    4.90999985    1.30999994
   19.51638794   -1.00000000    4.90999985    1.21000004
   19.51972198   -1.00000000    4.90999985    1.19000006
   19.52277756   -1.00000000    4.90999985    1.16999996
   19.52611160   -1.00000000    4.90999985    1.14999998
   19.52944374   -1.00000000    4.90999985    1.09000003
   19.53249931   -1.00000000    4.90999985    1.09000003
   19.53583336   -1.00000000    4.90999985    1.09000003
   19.53916550   -1.00000000    4.90999985    1.07000005
   19.54944420   -1.00000000    4.90999985    1.09000003
   19.55249977   -1.00000000    4.90999985    1.07000005
   19.55583191   -1.00000000    4.90999985    1.09000003
   19.55916595   -1.00000000    4.90999985    1.07000005
   19.56222153   -1.00000000    4.90999985    1.07000005
   19.56555557   -1.00000000    4.90999985    1.07000005
   19.56861115   -1.00000000    4.90999985    1.11000001
   19.57194519   -1.00000000    4.90999985    1.14999998
   19.57527924   -1.00000000    4.90999985    1.13000000
   19.57833481   -1.00000000    4.90999985    1.09000003
   19.58166695   -1.00000000    4.90999985    1.09000003
   19.59222221   -1.00000000    4.90999985    1.09000003
   19.59555626   -1.00000000    4.90999985    1.11000001
   19.59861183   -1.00000000    4.90999985    1.11000001
   19.60194397   -1.00000000    4.90999985    1.14999998
   19.60499954   -1.00000000    4.90999985    1.14999998
   19.60833359   -1.00000000    4.90999985    1.16999996
   19.61166763   -1.00000000    4.90999985    1.19000006
   19.61472321   -1.00000000    4.90999985    1.21000004
   19.61861038   -1.00000000    4.90999985    1.19000006
   19.62194443   -1.00000000    4.90999985    1.19000006
   19.62527847   -1.00000000    4.90999985    1.21000004
   19.63527679   -1.00000000    4.90999985    1.26999998
   19.63861084   -1.00000000    4.90999985    1.26999998
   19.64194489   -1.00000000    4.90999985    1.23000002
   19.64500046   -1.00000000    4.90999985    1.21000004
   19.64833260   -1.00000000    4.90999985    1.13000000
   19.65166664   -1.00000000    4.90999985    1.00000000
   19.65499878   -1.00000000    4.90999985    0.94000000
   19.65833282   -1.00000000    4.90999985    0.92000002
   19.66138840   -1.00000000    4.90999985    0.88000000
   19.66472244   -1.00000000    4.90999985    0.83999997
   19.66777802   -1.00000000    4.90999985    0.81999999
   19.67777634   -1.00000000    4.90999985    0.80000001
   19.68111038   -1.00000000    4.90999985    0.79000002
   19.68444443   -1.00000000    4.90999985    0.76999998
   19.68777657   -1.00000000    4.90999985    0.76999998
   19.69111061   -1.00000000    4.90999985    0.76999998
   19.69416618   -1.00000000    4.90999985    0.75000000
   19.69749832   -1.00000000    4.90999985    0.75000000
   19.70055580   -1.00000000    4.90999985    0.76999998
   19.70388985   -1.00000000    4.90999985    0.79000002
   19.70722389   -1.00000000    4.90999985    0.79000002
   19.71027946   -1.00000000    4.90999985    0.80000001
   19.72083473   -1.00000000    4.90999985    0.83999997
   19.72389030   -1.00000000    4.90999985    0.83999997
   19.72722244   -1.00000000    4.90999985    0.83999997
   19.73055649   -1.00000000    4.90999985    0.83999997
   19.73361206   -1.00000000    4.90999985    0.86000001
   19.73694420   -1.00000000    4.90999985    0.86000001
   19.73999977   -1.00000000    4.90999985    0.86000001
   19.74333382   -1.00000000    4.90999985    0.86000001
   19.74666786   -1.00000000    4.90999985    0.83999997
   19.75000000   -1.00000000    4.90999985    0.83999997
   19.75333405   -1.00000000    4.90999985    0.83999997
   19.76361084   -1.00000000    4.90999985    0.81999999
   19.76694489   -1.00000000    4.90999985    0.81999999
