    HOUR (UT)   FLARE FACTOR    SKY TESTER    SUN TESTER
   11.85972214   -1.00000000   -1.00000000   -1.00000000
   11.88305569  215.05099487    1.80999994    1.76999998
   11.88638878  177.50599670    1.80999994    1.78999996
   11.88972187  188.31500244    1.85000002    1.78999996
   11.89277744  172.96400452    1.85000002    1.78999996
   11.89611053  176.40600586    1.86000001    1.78999996
   11.89944458  170.01600647    1.86000001    1.80999994
   11.90333271  170.01600647    1.86000001    1.78999996
   11.90749931  167.29200745    1.86000001    1.78999996
   11.91083336  155.37600708    1.86000001    1.78999996
   11.91388893  162.91799927    1.86000001    1.80999994
   11.91611099  163.07099915    1.86000001    1.80999994
   11.91777802  168.37699890    1.86000001    1.80999994
   11.92083359  172.23399353    1.88000000    1.80999994
   11.92416668  172.56700134    1.91999996    1.80999994
   11.92750072  157.36300659    1.91999996    1.83000004
   11.93055630  174.50000000    1.91999996    1.83000004
   11.93388939  159.21000671    1.91999996    1.83000004
   11.93694496  165.08700562    1.91999996    1.83000004
   11.94027805  173.14799500    1.94000006    1.83000004
   11.94638920  173.14799500    1.89999998    1.85000002
   11.95027733  156.30499268    1.89999998    1.86000001
   11.95361137  171.40400696    1.88000000    1.86000001
   11.95694447  153.43600464    1.88000000    1.86000001
   11.96000004  165.41900635    1.88000000    1.86000001
   11.96333313  153.86999512    1.88000000    1.85000002
   11.96666622  149.14799500    1.89999998    1.86000001
   11.96999931  145.34100342    1.91999996    1.86000001
   11.97305489  148.34599304    1.89999998    1.86000001
   11.97638798  160.89500427    1.91999996    1.86000001
   11.97972202  162.46200562    1.89999998    1.86000001
   11.98277760  142.61900330    1.89999998    1.86000001
   11.98361111  151.53500366    1.89999998    1.88000000
   11.99138927   -1.00000000   -1.00000000   -1.00000000
   11.99611092   -1.00000000   -1.00000000   -1.00000000
   12.01916599  150.33099365    1.85000002    1.89999998
   12.02277756  156.74099731    1.85000002    1.91999996
   12.02583313  139.63000488    1.85000002    1.91999996
   12.02916622  147.01899719    1.83000004    1.91999996
   12.03249931  160.87500000    1.80999994    1.94000006
   12.03555584  144.33900452    1.80999994    1.94000006
   12.03972244  144.33900452    1.80999994    1.94000006
   12.04388905  158.30499268    1.78999996    1.94000006
   12.04694462  160.53500366    1.76999998    1.94000006
   12.05027771  150.61099243    1.73000002    1.94000006
   12.05277824  137.92799377    1.73000002    1.94000006
   12.05388927  141.83599854    1.71000004    1.96000004
   12.05722237  148.21299744    1.71000004    1.96000004
   12.06027794  155.56300354    1.71000004    1.94000006
   12.06361103  150.60299683    1.73000002    1.94000006
   12.06694412  140.51499939    1.73000002    1.94000006
   12.06999969  149.28599548    1.73000002    1.96000004
   12.07333374  142.14399719    1.75000000    1.96000004
   12.07666683  148.04699707    1.75000000    1.96000004
   12.08249950  148.04699707    1.71000004    1.96000004
   12.08666611  149.21299744    1.71000004    1.96000004
   12.09000015  148.45300293    1.69000006    1.98000002
   12.09305477  150.14100647    1.66999996    1.98000002
   12.09638882  170.44999695    1.66999996    1.98000002
   12.09972191  146.35000610    1.66999996    1.98000002
   12.10277843  173.68800354    1.64999998    2.00000000
   12.10611153  155.62399292    1.63000000    2.00000000
   12.10944462  142.79899597    1.63000000    2.00000000
   12.11250019  141.24000549    1.63000000    2.00000000
   12.11583328  137.03599548    1.63000000    2.00000000
   12.11916637  149.80599976    1.64999998    2.00000000
   12.11944485  155.46000671    1.64999998    2.00000000
   12.12555599  155.46000671    1.64999998    2.00000000
   12.12944412  149.35800171    1.64999998    2.00000000
   12.13277817  136.24899292    1.64999998    2.00000000
   12.13611126  179.59800720    1.64999998    2.00000000
   12.13916683  139.04400635    1.66999996    2.00000000
   12.14249992  137.07299805    1.66999996    2.00000000
   12.14583302  136.00199890    1.69000006    2.00000000
   12.14888859  148.45100403    1.69000006    2.00000000
   12.15222168  146.69099426    1.69000006    2.00000000
   12.15277767  136.87100220    1.69000006    2.01999998
   12.15583324  135.02600098    1.69000006    2.01999998
   12.15916634  141.04600525    1.71000004    2.00000000
   12.16222191  133.63299561    1.71000004    2.01999998
   12.16833401  133.63299561    1.71000004    2.01999998
   12.17250061  146.48500061    1.69000006    2.01999998
   12.17555618  136.82200623    1.69000006    2.03999996
   12.17888927  145.32499695    1.69000006    2.03999996
   12.18194485  143.10000610    1.66999996    2.03999996
   12.18527794  153.47200012    1.64999998    2.03999996
   12.18611145  145.91999817    1.64999998    2.03999996
   12.18888855  145.64599609    1.64999998    2.03999996
   12.19222260  144.86000061    1.63000000    2.03999996
   12.19527817  139.33399963    1.63000000    2.03999996
   12.19861126  142.85000610    1.61000001    2.05999994
   12.20166683  134.47200012    1.61000001    2.05999994
   12.20499992  135.57099915    1.60000002    2.05999994
   12.21111107  135.57099915    1.60000002    2.07999992
   12.21527767  137.45399475    1.60000002    2.05999994
   12.21833324  134.71400452    1.61000001    2.05999994
   12.21944427  133.52499390    1.61000001    2.05999994
   12.22194386  137.48300171    1.63000000    2.07999992
   12.22527695  137.94400024    1.63000000    2.07999992
   12.22833252  136.44599915    1.63000000    2.07999992
   12.23166656  137.41600037    1.63000000    2.07999992
   12.23500061  138.77900696    1.63000000    2.07999992
   12.23805618  140.44200134    1.63000000    2.07999992
   12.24138927  133.88800049    1.61000001    2.07999992
   12.24444485  134.86999512    1.61000001    2.07999992
   12.24777794  138.06799316    1.58000004    2.07999992
   12.25388908  138.06799316    1.58000004    2.09999990
   12.25805569  131.39100647    1.58000004    2.09999990
   12.26138878  140.78700256    1.55999994    2.07999992
   12.26444435  133.22000122    1.55999994    2.07999992
   12.26777744  128.84500122    1.53999996    2.09999990
   12.27111053  133.18099976    1.53999996    2.09999990
   12.27416611  129.89300537    1.53999996    2.11999989
   12.27750015  137.56100464    1.50000000    2.11999989
   12.28083324  130.59199524    1.50000000    2.11999989
   12.28388977  136.86900330    1.50000000    2.11999989
   12.28611183  143.70700073    1.48000002    2.11999989
   12.28750038  134.82000732    1.48000002    2.11999989
   12.29083347  131.77400208    1.50000000    2.11999989
   12.29666710  131.77400208    1.50000000    2.11999989
   12.30083370  127.67400360    1.50000000    2.11999989
   12.30416679  138.80400085    1.48000002    2.11999989
   12.30749989  131.82499695    1.48000002    2.13000011
   12.31055546  141.57699585    1.48000002    2.13000011
   12.31388950  135.26300049    1.48000002    2.13000011
   12.31694412  137.51199341    1.48000002    2.13000011
   12.31944466  140.59300232    1.48000002    2.13000011
   12.32055569  128.82699585    1.48000002    2.13000011
   12.32388878  137.69799805    1.48000002    2.13000011
   12.32694435  132.86500549    1.50000000    2.13000011
   12.33027744  137.64700317    1.48000002    2.15000010
   12.33361053  136.25500488    1.48000002    2.15000010
   12.33972168  136.25500488    1.48000002    2.15000010
   12.34388828  139.56199646    1.51999998    2.15000010
   12.34694386  131.84599304    1.51999998    2.15000010
   12.35027790  134.22000122    1.53999996    2.15000010
   12.35277843  137.82699585    1.53999996    2.15000010
   12.35388947  130.86999512    1.53999996    2.15000010
   12.35722256  130.70700073    1.53999996    2.15000010
   12.36027813  135.88900757    1.53999996    2.15000010
   12.36361122  129.69500732    1.53999996    2.15000010
   12.36694431  131.24600220    1.53999996    2.15000010
   12.36999989  136.21200562    1.53999996    2.15000010
   12.37333393  174.24400330    1.51999998    2.17000008
   12.37638855  218.21000671    1.51999998    2.17000008
   12.38249969  218.21000671    1.46000004    2.17000008
   12.38666630  191.50599670    1.46000004    2.17000008
   12.38972187  165.10499573    1.44000006    2.17000008
   12.39305496  162.68099976    1.44000006    2.17000008
   12.39638901  170.52099609    1.44000006    2.17000008
   12.39944458  157.54200745    1.44000006    2.17000008
   12.40277767  165.03700256    1.44000006    2.17000008
   12.40611076  153.37500000    1.44000006    2.17000008
   12.40916634  137.22500610    1.44000006    2.17000008
   12.41305542  150.29800415    0.00000000    0.00000000
   12.41694450  158.67500305    0.00000000    0.00000000
   12.41944504  137.50199890    0.00000000    0.00000000
   12.42111111  143.16700745    0.00000000    0.00000000
   12.42583370  143.16700745    0.00000000    0.00000000
   12.43055630  132.08700562    0.00000000    0.00000000
   12.43444443  132.67300415    0.00000000    0.00000000
   12.43833351  132.80200195    0.00000000    0.00000000
   12.44222260  137.54899597    0.00000000    0.00000000
   12.44611073  130.24000549    0.00000000    0.00000000
   12.44944477  134.91299438    1.44000006    2.17000008
   12.45249939  130.43299866    1.44000006    2.17000008
   12.45305538  126.73400116    1.44000006    2.17000008
   12.45611095  133.93499756    1.44000006    2.17000008
   12.45916653  131.32400513    1.44000006    2.17000008
   12.46249962  128.66900635    1.44000006    2.17000008
   12.46805477  128.66900635    1.44000006    2.17000008
   12.47222137  129.63900757    1.44000006    2.17000008
   12.47555542  127.55799866    1.44000006    2.19000006
   12.47861099  129.87600708    1.46000004    2.21000004
   12.48194408  133.19200134    1.46000004    2.21000004
   12.48527813  130.57699585    1.44000006    2.21000004
   12.48638916  131.86799622    1.46000004    2.21000004
   12.48888874  132.10499573    1.46000004    2.21000004
   12.49194431  129.20799255    1.46000004    2.21000004
   12.49527836  130.42399597    1.44000006    2.21000004
   12.49861145  129.26400757    1.44000006    2.21000004
   12.50166702  126.53099823    1.44000006    2.21000004
   12.50500011  127.39399719    1.44000006    2.23000002
   12.51111126  127.39399719    1.44000006    2.23000002
   12.51500034  124.58699799    1.41999996    2.23000002
   12.51833344  127.65299988    1.41999996    2.23000002
   12.51972198  129.58799744    1.41999996    2.23000002
   12.52194405  126.96199799    1.44000006    2.23000002
   12.52499962  136.33799744    1.41999996    2.23000002
   12.52833271  137.79899597    1.41999996    2.23000002
   12.53166676  134.46200562    1.41999996    2.23000002
   12.53472233  123.45200348    1.41999996    2.23000002
   12.53805637  128.33000183    1.41999996    2.23000002
   12.54138947  130.92500305    1.39999998    2.25000000
   12.54444504  132.77200317    1.39999998    2.23000002
   12.54777813  137.46099854    1.39999998    2.25000000
   12.55388927  137.46099854    1.39999998    2.25000000
   12.55805588  129.08000183    1.39999998    2.25000000
   12.56111145  150.32800293    1.38000000    2.25000000
   12.56444454  125.47699738    1.39999998    2.25000000
   12.56777763  130.68400574    1.38000000    2.25000000
   12.57083321  125.95400238    1.39999998    2.25000000
   12.57416630  129.98399353    1.38000000    2.25000000
   12.57750034  128.55700684    1.39999998    2.25000000
   12.58055592  128.96899414    1.38000000    2.25000000
   12.58388901  131.82299805    1.39999998    2.25000000
   12.58638859  130.73199463    1.38000000    2.25000000
   12.58749962  137.03599548    1.38000000    2.26999998
   12.59055519  130.83599854    1.39999998    2.26999998
   12.59666634  130.83599854    1.38000000    2.25000000
   12.60083389  132.09100342    1.38000000    2.26999998
   12.60416698  126.32700348    1.39999998    2.26999998
   12.60722256  126.62100220    1.39999998    2.26999998
   12.61055565  127.56900024    1.39999998    2.26999998
   12.61361122  136.23399353    1.39999998    2.26999998
   12.61694431  131.64700317    1.39999998    2.26999998
   12.61972237  171.43200684    1.39999998    2.26999998
   12.62055588  146.56799316    1.39999998    2.26999998
   12.62361145  140.93699646    1.38000000    2.26999998
   12.62694454  147.02099609    1.38000000    2.26999998
   12.63027763  129.33399963    1.38000000    2.26999998
   12.63333321  132.07800293    1.38000000    2.26999998
   12.63944435  132.07800293    1.38000000    2.28999996
   12.64361095  124.70700073    1.38000000    2.28999996
   12.64694405  130.88499451    1.38000000    2.28999996
   12.64999962  128.58299255    1.38000000    2.28999996
   12.65305519  126.23500061    1.36000001    2.28999996
   12.65388870  131.43299866    1.36000001    2.28999996
   12.65694427  127.21600342    1.38000000    2.28999996
   12.66027737  138.32499695    1.36000001    2.28999996
   12.66361046  127.47599792    1.36000001    2.28999996
   12.66666698  125.20400238    1.38000000    2.28999996
   12.67000008  126.10299683    1.36000001    2.28999996
   12.67333412  138.02499390    1.36000001    2.28999996
   12.67638874  140.68800354    1.36000001    2.28999996
   12.68249989  140.68800354    1.36000001    2.30999994
   12.68638897  135.32499695    1.36000001    2.30999994
   12.68972206  151.81100464    1.36000001    2.30999994
   12.69305515  124.38999939    1.36000001    2.28999996
   12.69611073  156.32899475    1.38000000    2.30999994
   12.69944477  165.38800049    1.38000000    2.30999994
   12.70277786  149.21099854    1.36000001    2.28999996
   12.70583344  154.00399780    1.36000001    2.30999994
   12.70916653  141.04899597    1.36000001    2.30999994
   12.71222210  165.92999268    1.36000001    2.30999994
   12.71555519  154.52099609    1.36000001    2.30999994
   12.71888828  127.37100220    1.36000001    2.30999994
   12.71972179  151.65299988    1.36000001    2.30999994
   12.72527695  151.65299988    1.36000001    2.30999994
   12.72944355  168.24200439    1.36000001    2.30999994
   12.73249912  171.75999451    1.36000001    2.30999994
   12.73583317  168.05499268    1.36000001    2.30999994
   12.73916721  182.69299316    1.36000001    2.30999994
   12.74222279  166.72900391    1.36000001    2.30999994
   12.74555588  143.78700256    1.36000001    2.32999992
   12.74861145  159.32600403    1.36000001    2.32999992
   12.75194454  142.01699829    1.36000001    2.32999992
   12.75305557  170.47500610    1.36000001    2.32999992
   12.75555515  179.00300598    1.36000001    2.30999994
   12.75861073  126.70300293    1.36000001    2.32999992
   12.76194477  124.48999786    1.36000001    2.32999992
   12.76805496  124.48999786    1.30999994    2.32999992
   12.77222157  128.12800598    1.28999996    2.32999992
   12.77555561  122.29399872    1.28999996    2.32999992
   12.77861118  128.72500610    1.28999996    2.32999992
   12.78194427  125.52600098    1.28999996    2.32999992
   12.78527832  137.63099670    1.26999998    2.32999992
   12.78638935  122.35199738    1.26999998    2.32999992
   12.78888893  127.58999634    1.26999998    2.32999992
   12.79222298  121.44999695    1.26999998    2.32999992
   12.79527855  125.74500275    1.25000000    2.32999992
   12.79861164  122.93599701    1.26999998    2.32999992
   12.80166721  125.23500061    1.25000000    2.32999992
   12.80500031  122.18299866    1.25000000    2.34999990
   12.81083393  122.18299866    1.23000002    2.34999990
   12.81500053  120.58399963    1.23000002    2.34999990
   12.81833363  129.98599243    1.23000002    2.34999990
   12.81972218  125.62200165    1.23000002    2.34999990
   12.82194424  124.63400269    1.21000004    2.34999990
   12.82527733  127.23100281    1.21000004    2.34999990
   12.82833290  128.13900757    1.19000006    2.34999990
   12.83166695  129.31799316    1.19000006    2.36999989
   12.83472157  123.81099701    1.21000004    2.34999990
   12.83805561  121.65399933    1.21000004    2.34999990
   12.84138870  123.72699738    1.21000004    2.36999989
   12.84444427  126.51100159    1.21000004    2.36999989
   12.84777737  126.04399872    1.19000006    2.36999989
   12.85388947  126.04399872    1.19000006    2.34999990
   12.85777855  126.22200012    1.19000006    2.36999989
   12.86111164  124.79499817    1.21000004    2.34999990
   12.86444473  125.71199799    1.21000004    2.36999989
   12.86750031  123.39700317    1.19000006    2.36999989
   12.87083340  126.03800201    1.21000004    2.36999989
   12.87416649  124.96099854    1.19000006    2.36999989
   12.87722206  126.69799805    1.19000006    2.36999989
   12.88055611  129.40800476    1.19000006    2.36999989
   12.88388920  128.05400085    1.16999996    2.36999989
   12.88638878  127.42099762    1.19000006    2.36999989
   12.88749981  123.98999786    1.19000006    2.36999989
   12.89083290  125.66699982    1.16999996    2.34999990
   12.89666653  125.66699982    1.19000006    2.36999989
   12.90083313  123.20300293    1.19000006    2.36999989
   12.90416622  126.46600342    1.19000006    2.36999989
   12.90722179  122.06500244    1.19000006    2.36999989
   12.91055489  124.25800323    1.21000004    2.36999989
   12.91388893  129.12100220    1.21000004    2.36999989
   12.91694450  125.44999695    1.21000004    2.36999989
   12.91972256  124.45400238    1.21000004    2.36999989
   12.92055607  121.90499878    1.21000004    2.36999989
   12.92388916  128.13900757    1.21000004    2.39000010
   12.92694473  128.10800171    1.21000004    2.36999989
   12.93027782  122.83399963    1.19000006    2.39000010
   12.93361092  127.08499908    1.19000006    2.36999989
   12.93944454  127.08499908    1.16999996    2.39000010
   12.94361115  126.87200165    1.16999996    2.39000010
   12.94694424  119.83399963    1.19000006    2.39000010
   12.94999981  125.27700043    1.19000006    2.39000010
   12.95305538  124.66200256    1.19000006    2.39000010
   12.95361137  121.88700104    1.16999996    2.39000010
   12.95694447  118.41500092    1.16999996    2.39000010
   12.96000004  118.29199982    1.16999996    2.39000010
   12.96333313  124.75000000    1.16999996    2.39000010
   12.96666622  125.44100189    1.16999996    2.39000010
   12.96972179  126.60399628    1.16999996    2.39000010
   12.97305489  120.08699799    1.16999996    2.39000010
   12.97611046  126.99500275    1.16999996    2.39000010
   12.98222160  126.99500275    1.19000006    2.39000010
   12.98638916  124.99099731    1.16999996    2.39000010
   12.98694515  121.96099854    1.16999996    2.39000010
   12.99027824  123.81999969    1.16999996    2.39000010
   12.99333382  125.06999969    1.19000006    2.39000010
   12.99666691  120.90399933    1.19000006    2.39000010
   13.00000000  121.58399963    1.21000004    2.39000010
   13.00305557  126.30899811    1.21000004    2.39000010
   13.00638866  121.37200165    1.21000004    2.39000010
   13.00944424  127.18599701    1.21000004    2.40000010
   13.01277733  122.91100311    1.21000004    2.39000010
   13.01611137  120.12899780    1.23000002    2.39000010
   13.01916599  120.81199646    1.26999998    2.40000010
   13.02027798  128.10899353    1.26999998    2.40000010
   13.04083347  128.10899353    1.25000000    2.40000010
   13.04500008  117.27400208    1.21000004    2.40000010
   13.04833412  121.26699829    1.19000006    2.40000010
   13.05166721  124.63400269    1.19000006    2.40000010
   13.05361176  121.79699707    1.19000006    2.40000010
   13.05527782  119.34999847    1.21000004    2.40000010
   13.05833340  121.71299744    1.21000004    2.40000010
   13.06166649  117.45099640    1.23000002    2.40000010
   13.06500053  120.93099976    1.16999996    2.40000010
   13.06805515  116.37999725    1.16999996    2.40000010
   13.07138920  119.80300140    1.16999996    2.40000010
   13.07472229  118.89199829    1.19000006    2.42000008
   13.07805538  122.29599762    1.19000006    2.40000010
   13.08361053  122.29599762    1.19000006    2.40000010
   13.08777714  121.95099640    1.19000006    2.40000010
   13.09111118  116.98100281    1.21000004    2.42000008
   13.09444427  119.68599701    1.21000004    2.42000008
   13.09749985  117.66600037    1.21000004    2.42000008
   13.10083389  116.96600342    1.21000004    2.42000008
   13.10388947  120.18000031    1.21000004    2.42000008
   13.10750008  118.69200134    1.21000004    2.40000010
   13.11055565  120.91999817    1.21000004    2.42000008
   13.11388969  118.83699799    1.23000002    2.42000008
   13.11722279  123.14399719    1.23000002    2.40000010
   13.12027836  128.55700684    1.23000002    2.42000008
   13.12083340  121.06400299    1.23000002    2.42000008
   13.12666702  121.06400299    1.23000002    2.42000008
   13.13083363  120.79499817    1.26999998    2.42000008
   13.13416672  109.47699738    1.26999998    2.42000008
   13.13722229  120.85299683    1.23000002    2.42000008
   13.14055538  123.57399750    1.21000004    2.42000008
   13.14388847  117.91000366    1.23000002    2.42000008
   13.14694405  117.71600342    1.21000004    2.42000008
   13.15027714  120.79399872    1.19000006    2.42000008
   13.15361118  122.54699707    1.19000006    2.42000008
   13.15416622  123.28399658    1.19000006    2.42000008
   13.15722179  116.65200043    1.19000006    2.44000006
   13.16027737  120.64800262    1.19000006    2.44000006
   13.16361046  117.53099823    1.16999996    2.44000006
   13.16972256  117.53099823    1.16999996    2.44000006
   13.17361164  119.41799927    1.16999996    2.44000006
   13.17694473  124.24800110    1.14999998    2.42000008
   13.18027782  121.03500366    1.16999996    2.44000006
   13.18333340  118.97699738    1.14999998    2.44000006
   13.18666649  121.19499969    1.13000000    2.44000006
   13.18750000  121.00900269    1.13000000    2.44000006
   13.19027805  118.72599792    1.14999998    2.44000006
   13.19333363  123.88200378    1.14999998    2.44000006
   13.19666672  119.32800293    1.14999998    2.44000006
   13.19999981  121.12000275    1.16999996    2.44000006
   13.20305538  121.17299652    1.19000006    2.44000006
   13.20638847  120.67600250    1.19000006    2.44000006
   13.21249962  120.67600250    1.23000002    2.44000006
   13.21666622  121.47399902    1.23000002    2.44000006
   13.21972179  116.86900330    1.23000002    2.44000006
   13.22083282  117.49299622    1.23000002    2.44000006
   13.22361088  119.36399841    1.23000002    2.44000006
   13.22666645  123.57099915    1.23000002    2.44000006
   13.22999954  122.54100037    1.21000004    2.44000006
   13.23333359  123.38700104    1.19000006    2.44000006
   13.23638916  119.94000244    1.19000006    2.44000006
   13.23972225  116.52200317    1.19000006    2.44000006
   13.24305534  125.46900177    1.19000006    2.44000006
   13.24611092  126.36799622    1.19000006    2.44000006
   13.24944496  127.34300232    1.19000006    2.46000004
   13.25527763  127.34300232    1.19000006    2.44000006
   13.25944424  123.53199768    1.19000006    2.44000006
   13.26249981  121.81800079    1.19000006    2.44000006
   13.26583290  123.49199677    1.19000006    2.46000004
   13.26916599  124.04399872    1.19000006    2.46000004
   13.27222157  124.81999969    1.14999998    2.46000004
   13.27555561  114.52700043    1.14999998    2.46000004
   13.27888870  124.51799774    1.14999998    2.46000004
   13.28194427  123.86499786    1.13000000    2.46000004
   13.28527832  121.10900116    1.13000000    2.46000004
   13.28750038  120.99800110    1.13000000    2.46000004
   13.28888893  124.71399689    1.11000001    2.46000004
   13.29222298  125.30300140    1.11000001    2.46000004
   13.29805565  125.30300140    1.11000001    2.46000004
   13.30222225  121.26699829    1.13000000    2.46000004
   13.30555534  115.03500366    1.11000001    2.46000004
   13.30861092  116.18800354    1.11000001    2.46000004
   13.31194496  128.77699280    1.09000003    2.46000004
   13.31527805  123.02300262    1.09000003    2.46000004
   13.31833363  120.38800049    1.09000003    2.46000004
   13.32083321  120.22699738    1.09000003    2.46000004
   13.32194424  121.67900085    1.09000003    2.46000004
   13.32499981  116.64900208    1.09000003    2.46000004
   13.32833290  126.42600250    1.07000005    2.46000004
   13.33166695  124.54299927    1.07000005    2.46000004
   13.33472157  121.22599792    1.07000005    2.48000002
   13.34111118  121.22599792    1.09000003    2.46000004
   13.34499931  120.43900299    1.09000003    2.46000004
   13.34833336  119.33699799    1.09000003    2.46000004
   13.35166740  119.16100311    1.11000001    2.46000004
   13.35416698  116.18800354    1.11000001    2.46000004
   13.35527802  117.29100037    1.13000000    2.46000004
   13.35833359  120.38300323    1.13000000    2.46000004
   13.36166668  118.61799622    1.13000000    2.48000002
   13.36500072  111.48400116    1.14999998    2.46000004
   13.36805534  118.55100250    1.14999998    2.46000004
   13.37138939  122.40599823    1.16999996    2.46000004
   13.37472248  115.88999939    1.19000006    2.46000004
   13.37777805  116.76899719    1.21000004    2.46000004
   13.38388920  116.76899719    1.23000002    2.46000004
   13.38805580  118.26499939    1.25000000    2.46000004
   13.39111137  120.93199921    1.23000002    2.46000004
   13.39444447  117.35299683    1.21000004    2.46000004
   13.39777756  118.68599701    1.21000004    2.48000002
   13.40083313  114.74500275    1.21000004    2.48000002
   13.40416622  110.22299957    1.21000004    2.48000002
   13.40749931  117.27100372    1.21000004    2.48000002
   13.41055489  119.98899841    1.19000006    2.48000002
   13.41388893  117.90299988    1.19000006    2.48000002
   13.41694450  114.98699951    1.21000004    2.46000004
   13.42027855  119.15899658    1.19000006    2.48000002
   13.42083359  125.10399628    1.19000006    2.48000002
   13.42666721  125.10399628    1.16999996    2.48000002
   13.43083382  120.59400177    1.14999998    2.48000002
   13.43388939  117.93199921    1.14999998    2.48000002
   13.43722248  117.79100037    1.14999998    2.48000002
   13.44055557  117.92700195    1.16999996    2.48000002
   13.44361115  124.77100372    1.16999996    2.48000002
   13.44694424  116.28099823    1.16999996    2.48000002
   13.45027733  123.94999695    1.13000000    2.48000002
   13.45333290  115.19000244    1.13000000    2.48000002
   13.45416641  117.95999908    1.14999998    2.48000002
   13.45694447  115.22100067    1.14999998    2.48000002
   13.46027756  122.25000000    1.16999996    2.48000002
   13.46333313  117.12200165    1.14999998    2.48000002
   13.46944427  117.12200165    1.16999996    2.48000002
   13.47361088  117.45300293    1.21000004    2.48000002
   13.47694397  118.36199951    1.16999996    2.48000002
   13.47999954  121.12500000    1.16999996    2.48000002
   13.48333359  117.38400269    1.16999996    2.48000002
   13.48666668  119.36599731    1.16999996    2.48000002
   13.48750019  114.79000092    1.16999996    2.48000002
   13.49027824  113.90499878    1.16999996    2.48000002
   13.49361134  112.78500366    1.19000006    2.48000002
   13.49666691  114.08699799    1.16999996    2.48000002
   13.50000000  116.56300354    1.19000006    2.48000002
   13.50305557  117.17700195    1.16999996    2.50000000
   13.50638866  115.76100159    1.16999996    2.48000002
   13.51222229  115.76100159    1.16999996    2.50000000
   13.51638889  120.74199677    1.14999998    2.48000002
   13.51972198  121.49199677    1.14999998    2.48000002
   13.52083302  118.38500214    1.21000004    2.50000000
   13.52333355  114.65399933    1.21000004    2.50000000
   13.52666664  118.71199799    1.23000002    2.50000000
   13.52972221  114.58999634    1.19000006    2.48000002
   13.53305531  118.57700348    1.25000000    2.50000000
   13.53611183  117.73699951    1.16999996    2.50000000
   13.53944492  114.67299652    1.19000006    2.50000000
   13.54277802  118.27100372    1.21000004    2.50000000
   13.54583359  118.37400055    1.21000004    2.50000000
   13.54916668  114.13800049    1.26999998    2.48000002
   13.55527782  114.13800049    1.30999994    2.50000000
   13.55944443  114.47899628    1.26999998    2.50000000
   13.56250000  112.98200226    1.25000000    2.50000000
   13.56583309  115.94400024    1.25000000    2.50000000
   13.56916618  115.93499756    1.25000000    2.50000000
   13.57222176  115.19100189    1.25000000    2.50000000
   13.57555580  109.18000031    1.25000000    2.50000000
   13.57861137  114.58599854    1.26999998    2.50000000
   13.58194447  122.61000061    1.30999994    2.50000000
   13.58527756  116.94799805    1.33000004    2.50000000
   13.58749962  118.05400085    1.33000004    2.50000000
   13.58888817  113.04900360    1.33000004    2.50000000
   13.59222221  116.38600159    1.33000004    2.50000000
   13.59805489  116.38600159    1.28999996    2.50000000
   13.60222244  116.41100311    1.28999996    2.50000000
   13.60527802  110.75299835    1.30999994    2.50000000
   13.60861111  114.86100006    1.30999994    2.50000000
   13.61194515  117.12699890    1.28999996    2.51999998
   13.61500072  111.19899750    1.28999996    2.50000000
   13.61833382  114.10500336    1.30999994    2.50000000
   13.62083340  118.12200165    1.30999994    2.50000000
   13.62194443  116.62300110    1.30999994    2.50000000
   13.62527752  116.73100281    1.28999996    2.51999998
   13.62861156  116.06999969    1.28999996    2.50000000
   13.63166714  115.20200348    1.30999994    2.50000000
   13.63500023  117.34400177    1.28999996    2.51999998
   13.64083290  117.34400177    1.26999998    2.50000000
   13.64499950  108.97799683    1.26999998    2.50000000
   13.64833355  116.41600037    1.26999998    2.51999998
   13.65138817  116.57700348    1.25000000    2.51999998
   13.65416622  107.92299652    1.23000002    2.51999998
   13.65499973  117.56099701    1.23000002    2.51999998
   13.65833282  111.44100189    1.25000000    2.50000000
   13.66138840  116.80500031    1.13000000    2.51999998
   13.66472149  115.67299652    1.14999998    2.51999998
   13.66777802  113.53500366    1.16999996    2.51999998
   13.67111111  110.39499664    1.16999996    2.51999998
   13.67444515  117.18199921    1.16999996    2.50000000
   13.67750072  121.92600250    1.16999996    2.51999998
   13.68361092  121.92600250    1.14999998    2.51999998
   13.68777752  117.30200195    1.14999998    2.51999998
   13.69111156  122.30999756    1.14999998    2.51999998
   13.69444466  113.15399933    1.14999998    2.51999998
   13.69750023  110.59500122    1.13000000    2.51999998
   13.70083332  114.16799927    1.13000000    2.51999998
   13.70388889  115.76599884    1.14999998    2.51999998
   13.70722198  113.00399780    1.14999998    2.51999998
   13.71055508  111.30799866    1.14999998    2.51999998
   13.71361065  117.52700043    1.13000000    2.51999998
   13.71694374  114.26799774    1.13000000    2.51999998
   13.72027779  110.58899689    1.14999998    2.51999998
   13.72083282  116.00099945    1.14999998    2.51999998
   13.72666645  116.00099945    1.14999998    2.51999998
   13.73083305  108.65699768    1.14999998    2.51999998
   13.73388958  112.47000122    1.14999998    2.51999998
   13.73722267  110.62200165    1.14999998    2.51999998
   13.74027824  110.55699921    1.16999996    2.53999996
   13.74361134  109.62899780    1.14999998    2.51999998
   13.74694443  104.52899933    1.11000001    2.51999998
   13.75000000  113.66799927    1.11000001    2.51999998
   13.75333309  112.25199890    1.09000003    2.51999998
   13.75416660  109.64600372    1.09000003    2.51999998
   13.75694466  115.06500244    1.09000003    2.53999996
   13.76027775  111.02600098    1.09000003    2.53999996
   13.76333332  118.43599701    1.07000005    2.51999998
   13.76944447  118.43599701    1.09000003    2.53999996
   13.77361107  111.23899841    1.09000003    2.51999998
   13.77666664  111.83899689    1.09000003    2.53999996
   13.77999973  115.58899689    1.13000000    2.53999996
   13.78333378  109.53500366    1.19000006    2.53999996
   13.78638935  116.46199799    1.28999996    2.53999996
   13.78750038  113.33300018    1.28999996    2.53999996
   13.79000092  112.59999847    1.28999996    2.53999996
   13.79333401  112.99500275    1.28999996    2.53999996
   13.79638958  117.16200256    1.26999998    2.53999996
   13.79972267  112.53900146    1.34000003    2.53999996
   13.80305576  120.78900146    1.19000006    2.53999996
   13.80611134  112.62400055    1.13000000    2.53999996
   13.81222248  112.62400055    1.11000001    2.53999996
   13.81638908  113.58599854    1.11000001    2.53999996
   13.81972218  116.31099701    1.07000005    2.53999996
   13.82083321  116.22200012    1.07000005    2.53999996
   13.82333374  110.85399628    1.09000003    2.53999996
   13.82666683  117.13099670    1.09000003    2.53999996
   13.82972240  113.03199768    1.05999994    2.53999996
   13.83305550  113.25099945    1.07000005    2.53999996
   13.83638859  118.01699829    1.05999994    2.53999996
   13.83944416  113.19799805    1.05999994    2.53999996
   13.84277725  113.61599731    1.05999994    2.55999994
   13.84583282  116.64600372    1.09000003    2.53999996
   13.84916592  114.08200073    1.09000003    2.53999996
   13.85500050  114.08200073    1.07000005    2.53999996
   13.85916710  112.52100372    1.07000005    2.53999996
   13.86250019  116.26599884    1.03999996    2.53999996
   13.86583328  117.04299927    1.03999996    2.53999996
   13.86888885  113.36399841    1.03999996    2.53999996
   13.87222195  111.04399872    1.05999994    2.53999996
   13.87555599  114.22499847    1.05999994    2.55999994
   13.87861156  115.71700287    1.07000005    2.55999994
   13.88194466  113.41200256    1.07000005    2.53999996
   13.88527775  114.85800171    1.07000005    2.53999996
   13.88749981  115.10900116    1.09000003    2.53999996
   13.88861084  115.61000061    1.09000003    2.53999996
   13.89194393  112.72799683    1.07000005    2.53999996
   13.89805508  112.72799683    1.05999994    2.53999996
   13.90222168  119.17800140    1.07000005    2.55999994
   13.90527725  121.14900208    1.07000005    2.55999994
   13.90861034  113.38999939    1.07000005    2.55999994
   13.91166592  113.84200287    1.07000005    2.55999994
   13.91499996  111.46099854    1.07000005    2.55999994
   13.91833401  119.99600220    1.05999994    2.55999994
   13.92083359  111.34999847    1.03999996    2.53999996
   13.92194462  120.48100281    1.03999996    2.53999996
   13.92527771  117.09600067    1.05999994    2.55999994
   13.92833328  117.21600342    1.05999994    2.53999996
   13.93166733  126.16400146    1.05999994    2.55999994
   13.93500042  122.08499908    1.07000005    2.55999994
   13.94083309  122.08499908    1.11000001    2.55999994
   13.94499969  115.76899719    1.36000001    2.53999996
   13.94805527  119.29199982    1.36000001    2.53999996
   13.95138836  112.39399719    1.25000000    2.53999996
   13.95416641  115.78099823    1.33000004    2.53999996
   13.95499992  120.01899719    1.33000004    2.53999996
   13.95833302  129.52099609    1.33000004    2.55999994
   13.96138859  118.81400299    1.39999998    2.53999996
   13.96472168  113.59500122    1.41999996    2.53999996
   13.96805477  117.20099640    1.39999998    2.55999994
   13.97111034  114.91500092    1.39999998    2.55999994
   13.97444439  121.84500122    1.33000004    2.55999994
   13.97749996  114.74700165    1.30999994    2.55999994
   13.98361111  114.74700165    1.16999996    2.53999996
   13.98777771  115.30899811    1.16999996    2.55999994
   13.99111176  125.99299622    1.21000004    2.53999996
   13.99416733  112.81099701    1.16999996    2.55999994
   13.99750042  112.63700104    1.14999998    2.53999996
   14.00083351  113.90399933    1.14999998    2.53999996
   14.00388908  118.50900269    1.13000000    2.55999994
   14.00722218  115.35199738    1.14999998    2.53999996
   14.01027775  111.08699799    1.14999998    2.55999994
   14.01361084  112.33799744    1.14999998    2.53999996
   14.01694393  112.25099945    1.14999998    2.55999994
   14.01999950  116.17400360    1.13000000    2.55999994
   14.02111053  113.60399628    1.13000000    2.55999994
   14.02638817  113.60399628    1.13000000    2.55999994
   14.03055573  115.72100067    1.11000001    2.55999994
   14.03388977  117.17800140    1.11000001    2.55999994
   14.03722286  115.79399872    1.11000001    2.55999994
   14.05472279  116.05200195    1.07000005    2.55999994
   14.05694485  115.30699921    1.05999994    2.55999994
   14.06027794  122.07499695    1.05999994    2.55999994
   14.06361103  116.83300018    1.05999994    2.55999994
   14.06944466  116.83300018    1.05999994    2.55999994
   14.07361126  114.09600067    1.05999994    2.55999994
   14.07694435  118.97299957    1.05999994    2.55999994
   14.07999992  124.42099762    1.05999994    2.55999994
   14.08333302  111.80899811    1.07000005    2.55999994
   14.08666611  114.28500366    1.07000005    2.55999994
   14.08777714  118.22000122    1.07000005    2.55999994
   14.09000015  115.44599915    1.07000005    2.55999994
   14.09333324  115.27300262    1.05999994    2.55999994
   14.09638882  114.87699890    1.07000005    2.55999994
   14.09972191  115.06700134    1.07000005    2.55999994
   14.10305595  122.52600098    1.07000005    2.55999994
   14.10611153  118.80200195    1.03999996    2.55999994
   14.11222267  118.80200195    1.01999998    2.55999994
   14.11638927  116.71800232    1.01999998    2.55999994
   14.11972237  115.80999756    1.01999998    2.55999994
   14.12138939  122.92099762    1.01999998    2.57999992
   14.12333393  117.71900177    1.01999998    2.57999992
   14.12666702  128.05499268    1.01999998    2.55999994
   14.12972260  122.65100098    1.03999996    2.55999994
   14.13305569  127.56500244    1.03999996    2.55999994
   14.13638878  114.50099945    1.03999996    2.55999994
   14.13972187  121.04699707    1.05999994    2.57999992
   14.14277744  121.55100250    1.05999994    2.57999992
   14.14611053  121.32499695    1.05999994    2.57999992
   14.14944458  115.69400024    1.07000005    2.55999994
   14.15527725  115.69400024    1.05999994    2.55999994
   14.15944386  114.26799774    1.03999996    2.57999992
   14.16249943  122.45999908    1.05999994    2.55999994
   14.16583252  114.30799866    1.09000003    2.57999992
   14.16888905  113.27100372    1.09000003    2.55999994
   14.17222214  113.27799988    1.07000005    2.57999992
   14.17555618  111.15399933    1.07000005    2.57999992
   14.17861176  111.87799835    1.09000003    2.57999992
   14.18194485  115.79000092    1.09000003    2.55999994
   14.18527794  116.42600250    1.11000001    2.57999992
   14.18805599  113.21800232    1.09000003    2.55999994
   14.18861103  116.56900024    1.09000003    2.55999994
   14.19194412  119.73799896    1.09000003    2.55999994
   14.19805527  119.73799896    1.44000006    2.55999994
   14.20222187  112.96700287    1.16999996    2.57999992
   14.20527744  118.59200287    1.19000006    2.55999994
   14.20861053  116.42099762    1.19000006    2.55999994
   14.21194458  120.17500305    1.16999996    2.55999994
   14.21500015  120.87799835    1.14999998    2.57999992
   14.21833324  118.70700073    1.16999996    2.57999992
   14.22138882  116.50399780    1.19000006    2.57999992
   14.22194386  116.57800293    1.19000006    2.57999992
   14.22527695  112.90599823    1.26999998    2.55999994
   14.22861099  115.80200195    1.28999996    2.57999992
   14.23166656  114.68599701    1.30999994    2.57999992
   14.23500061  115.81099701    1.28999996    2.57999992
   14.24083328  115.81099701    1.26999998    2.57999992
   14.24499989  115.09500122    1.26999998    2.57999992
   14.24833393  118.19100189    1.25000000    2.57999992
   14.25138855  118.81999969    1.19000006    2.57999992
   14.25472260  114.72299957    1.19000006    2.57999992
   14.25500011  118.05300140    1.19000006    2.57999992
   14.25833321  115.99500275    1.16999996    2.57999992
   14.26138878  113.52500153    1.11000001    2.59999990
   14.26472187  121.71399689    1.09000003    2.57999992
   14.26805496  118.84899902    1.09000003    2.57999992
   14.27111053  119.17900085    1.09000003    2.57999992
   14.27444458  117.16799927    1.09000003    2.57999992
   14.27777767  115.57900238    1.05999994    2.57999992
   14.28388977  115.57900238    1.05999994    2.57999992
   14.28805637  119.85199738    1.05999994    2.57999992
   14.29138947  128.23599243    1.05999994    2.57999992
   14.29444504  120.04799652    1.05999994    2.59999990
   14.29777813  117.82599640    1.05999994    2.57999992
   14.30083370  117.34300232    1.07000005    2.57999992
   14.30416679  117.17600250    1.09000003    2.57999992
   14.30749989  118.07700348    1.07000005    2.57999992
   14.31083393  116.92800140    1.07000005    2.57999992
   14.31388950  116.87799835    1.07000005    2.57999992
   14.31722260  121.66699982    1.07000005    2.57999992
   14.32055569  118.64399719    1.07000005    2.57999992
   14.32138920  120.44499969    1.07000005    2.57999992
   14.32666683  120.44499969    1.09000003    2.57999992
   14.33055592  119.58000183    1.09000003    2.57999992
   14.33388901  113.91899872    1.07000005    2.59999990
   14.33722210  116.67099762    1.09000003    2.59999990
   14.34027767  111.87599945    1.11000001    2.57999992
   14.34361076  111.94100189    1.13000000    2.57999992
   14.34694386  117.00399780    1.13000000    2.57999992
   14.35000038  115.64099884    1.14999998    2.57999992
   14.35333347  117.63200378    1.16999996    2.57999992
   14.35472298  118.85600281    1.16999996    2.57999992
   14.35694504  119.56400299    1.16999996    2.57999992
   14.36027813  113.41400146    1.14999998    2.57999992
   14.36333370  117.98200226    1.14999998    2.57999992
   14.36944485  117.98200226    1.11000001    2.57999992
   14.37361145  116.65599823    1.09000003    2.57999992
   14.37666702  119.28900146    1.11000001    2.59999990
   14.38000011  114.20099640    1.11000001    2.59999990
   14.38333321  115.89600372    1.13000000    2.59999990
   14.38638878  115.37899780    1.14999998    2.59999990
   14.38805580  113.71499634    1.14999998    2.59999990
   14.39027786  117.46299744    1.13000000    2.59999990
   14.39333344  117.53099823    1.13000000    2.59999990
   14.39666653  120.58899689    1.14999998    2.59999990
   14.39972210  115.45899963    1.13000000    2.59999990
   14.40305519  118.69499969    1.13000000    2.59999990
   14.40638828  113.63200378    1.13000000    2.57999992
   14.41222191  113.63200378    1.13000000    2.59999990
   14.41638851  114.55100250    1.13000000    2.57999992
   14.41972256  114.23999786    1.13000000    2.57999992
   14.42138958  115.78399658    1.14999998    2.59999990
   14.42305565  115.66400146    1.14999998    2.59999990
   14.42638874  111.90100098    1.13000000    2.59999990
   14.42944431  115.45099640    1.14999998    2.59999990
   14.43277836  114.67600250    1.14999998    2.59999990
   14.43611145  119.39299774    1.14999998    2.59999990
   14.43916702  112.58300018    1.13000000    2.59999990
   14.44250011  109.98899841    1.14999998    2.59999990
   14.44583321  111.97799683    1.13000000    2.59999990
   14.44916630  116.72000122    1.11000001    2.59999990
   14.45527744  116.72000122    1.11000001    2.59999990
   14.45944405  114.87999725    1.11000001    2.59999990
   14.46249962  113.08200073    1.11000001    2.59999990
   14.46583271  114.37400055    1.09000003    2.59999990
   14.46916580  112.65100098    1.09000003    2.59999990
   14.47222137  114.26799774    1.07000005    2.59999990
   14.47555542  116.32800293    1.05999994    2.59999990
   14.47888851  112.71800232    1.05999994    2.59999990
   14.48194408  112.36199951    1.05999994    2.59999990
   14.48527813  117.58300018    1.05999994    2.59999990
   14.48805618  117.04699707    1.07000005    2.59999990
   14.48888874  117.12899780    1.07000005    2.59999990
   14.49222279  115.29599762    1.07000005    2.59999990
   14.49805546  115.29599762    1.14999998    2.59999990
   14.50222206  125.20200348    1.14999998    2.59999990
   14.50555515  117.59100342    1.14999998    2.59999990
   14.50861073  114.58499908    1.14999998    2.59999990
   14.51194477  117.69400024    1.14999998    2.59999990
   14.51500034  116.84999847    1.14999998    2.59999990
   14.51833344  116.62500000    1.16999996    2.61999989
   14.52138901  118.87400055    1.16999996    2.59999990
   14.52194405  115.68199921    1.14999998    2.59999990
   14.52527714  117.69499969    1.14999998    2.61999989
   14.52833271  115.40699768    1.14999998    2.59999990
   14.53166676  116.71399689    1.16999996    2.59999990
   14.53500080  119.86299896    1.14999998    2.59999990
   14.54083347  119.86299896    1.16999996    2.59999990
   14.54500008  114.30400085    1.21000004    2.59999990
   14.54833412  113.04299927    1.21000004    2.59999990
   14.55138874  119.73400116    1.21000004    2.59999990
   14.55472279  118.01699829    1.21000004    2.59999990
   14.55500031  115.84500122    1.21000004    2.59999990
   14.55833340  118.06199646    1.21000004    2.59999990
   14.56166649  120.29699707    1.21000004    2.59999990
   14.56472206  119.66000366    1.21000004    2.59999990
   14.56805515  115.31800079    1.23000002    2.59999990
   14.57111073  116.58300018    1.21000004    2.59999990
   14.57444477  120.91699982    1.19000006    2.61999989
   14.57777786  115.39199829    1.19000006    2.61999989
   14.58388901  115.39199829    1.14999998    2.61999989
   14.58777714  116.50099945    1.13000000    2.61999989
   14.58833313  122.22399902    1.13000000    2.61999989
   14.59166622  123.38600159    1.14999998    2.61999989
   14.59472179  119.98100281    1.14999998    2.59999990
   14.59805489  120.93699646    1.14999998    2.59999990
   14.60138893  119.46600342    1.14999998    2.59999990
   14.60444450  122.44999695    1.14999998    2.61999989
   14.60777855  116.48500061    1.14999998    2.61999989
   14.61111164  118.13800049    1.14999998    2.59999990
   14.61416721  118.18699646    1.14999998    2.59999990
   14.61750031  117.92600250    1.16999996    2.61999989
   14.62083340  111.75800323    1.16999996    2.59999990
   14.62166691  118.38999939    1.16999996    2.59999990
   14.62666702  118.38999939    1.21000004    2.61999989
   14.63083363  115.08100128    1.23000002    2.59999990
   14.63388920  116.81099701    1.23000002    2.59999990
   14.63749981  117.46299744    1.23000002    2.59999990
   14.64055538  110.87899780    1.23000002    2.61999989
   14.64388847  114.70400238    1.23000002    2.61999989
   14.64722252  119.00499725    1.25000000    2.59999990
   14.65027714  115.48100281    1.23000002    2.61999989
   14.65361118  111.63600159    1.23000002    2.61999989
   14.65499973  113.88700104    1.23000002    2.61999989
   14.65722179  112.89600372    1.23000002    2.61999989
   14.66055489  117.83599854    1.23000002    2.61999989
   14.66361046  116.40399933    1.25000000    2.61999989
   14.66944504  116.40399933    1.25000000    2.59999990
   14.67361164  117.66899872    1.25000000    2.59999990
   14.67694473  115.29299927    1.26999998    2.59999990
   14.68000031  112.19799805    1.28999996    2.59999990
   14.68333340  113.47699738    1.30999994    2.59999990
   14.68638897  115.01999664    1.30999994    2.59999990
   14.68833351  111.60900116    1.30999994    2.61999989
   14.69027805  113.75800323    1.30999994    2.61999989
   14.69361115  114.18000031    1.28999996    2.61999989
   14.69666672  117.64900208    1.28999996    2.61999989
   14.69999981  115.83399963    1.26999998    2.61999989
   14.70305538  115.47000122    1.26999998    2.61999989
   14.70638847  111.50499725    1.28999996    2.59999990
   14.71222210  111.50499725    1.28999996    2.59999990
   14.71638870  122.30400085    1.30999994    2.59999990
   14.71972179  117.63800049    1.30999994    2.59999990
   14.72166634  119.91200256    1.33000004    2.59999990
   14.72333336  111.56199646    1.33000004    2.59999990
   14.72666645  117.00299835    1.33000004    2.61999989
   14.72972202  118.69499969    1.34000003    2.61999989
   14.73305511  116.20099640    1.34000003    2.59999990
   14.73611164  114.36699677    1.34000003    2.59999990
   14.73944473  120.90499878    1.34000003    2.59999990
   14.74277782  115.32099915    1.34000003    2.61999989
   14.74583340  116.40499878    1.34000003    2.61999989
   14.74916649  117.34400177    1.36000001    2.61999989
   14.75527763  117.34400177    1.36000001    2.61999989
   14.75916672  114.94000244    1.38000000    2.61999989
   14.76249981  113.56099701    1.44000006    2.61999989
   14.76583290  112.49400330    1.51999998    2.61999989
   14.76888847  111.36599731    1.51999998    2.61999989
   14.77222157  113.16000366    1.55999994    2.61999989
   14.77555561  117.04100037    1.61000001    2.61999989
   14.77861118  115.34899902    1.61000001    2.59999990
   14.78194427  117.13200378    1.61000001    2.59999990
   14.78500080  111.24900055    1.60000002    2.59999990
   14.78833389  113.22799683    1.60000002    2.59999990
   14.78888893  112.10500336    1.60000002    2.59999990
   14.79194450  111.93900299    1.55999994    2.61999989
   14.79805565  111.93900299    1.51999998    2.61999989
   14.80222225  112.24700165    1.50000000    2.61999989
   14.80555534  113.04900360    1.46000004    2.61999989
   14.80888939  113.44499969    1.46000004    2.61999989
   14.81194496  117.95899963    1.46000004    2.61999989
   14.81527805  115.78700256    1.38000000    2.61999989
   14.81861115  113.62599945    1.36000001    2.61999989
   14.82166672  113.76999664    1.36000001    2.61999989
   14.82222176  111.05300140    1.36000001    2.61999989
   14.82527733  113.28800201    1.36000001    2.61999989
   14.82833290  113.82299805    1.36000001    2.61999989
   14.83166695  112.12999725    1.36000001    2.61999989
   14.83500004  107.31700134    1.36000001    2.61999989
   14.84083271  107.31700134    1.36000001    2.61999989
   14.84499931  116.42199707    1.36000001    2.61999989
   14.84833336  109.81999969    1.36000001    2.61999989
   14.85138893  112.61199951    1.36000001    2.61999989
   14.85472298  110.39600372    1.34000003    2.61999989
   14.85555553  116.19799805    1.34000003    2.61999989
   14.85833359  113.11299896    1.34000003    2.61999989
   14.86138916  115.44799805    1.33000004    2.61999989
   14.86472225  112.76499939    1.30999994    2.61999989
   14.86805534  120.30000305    1.28999996    2.61999989
   14.87111092  120.21600342    1.28999996    2.61999989
   14.87444496  109.95600128    1.28999996    2.61999989
   14.87750053  113.56800079    1.28999996    2.61999989
   14.88361073  113.56800079    1.30999994    2.61999989
   14.88777733  120.51399994    1.30999994    2.61999989
   14.88888836  117.72399902    1.30999994    2.61999989
   14.89138889  124.74800110    1.30999994    2.61999989
   14.89444447  122.47699738    1.28999996    2.61999989
   14.89777756  114.36100006    1.28999996    2.61999989
   14.90111065  112.70400238    1.28999996    2.61999989
   14.90416622  116.96700287    1.28999996    2.61999989
   14.90749931  113.85700226    1.28999996    2.61999989
   14.91055489  114.45899963    1.26999998    2.61999989
   14.91388893  114.57199860    1.26999998    2.61999989
   14.91722298  113.01000214    1.26999998    2.64000010
   14.92027855  117.20899963    1.26999998    2.61999989
   14.92222214  119.05899811    1.26999998    2.61999989
   14.92638874  119.05899811    1.26999998    2.64000010
   14.93055630  110.13300323    1.26999998    2.61999989
   14.93388939  105.32499695    1.26999998    2.64000010
   14.93722248  111.48200226    1.26999998    2.64000010
   14.94027805  113.58699799    1.26999998    2.61999989
   14.94361115  110.73799896    1.25000000    2.64000010
   14.94666672  109.70600128    1.25000000    2.61999989
   14.94999981  107.00800323    1.25000000    2.61999989
   14.95333290  116.34200287    1.25000000    2.61999989
   14.95555496  107.71099854    1.25000000    2.64000010
   14.95694447  106.74800110    1.25000000    2.64000010
   14.96000004  110.49900055    1.26999998    2.61999989
   14.96333313  107.21399689    1.26999998    2.61999989
   14.96944427  107.21399689    1.26999998    2.61999989
   14.97361088  112.08899689    1.28999996    2.61999989
   14.97694397  114.33100128    1.28999996    2.61999989
   14.97999954  113.05799866    1.30999994    2.64000010
   14.98333359  118.77300262    1.28999996    2.61999989
   14.98666668  118.28399658    1.28999996    2.61999989
   14.98888874  120.58799744    1.28999996    2.61999989
   14.99027824  113.72699738    1.26999998    2.61999989
   14.99333382  114.97100067    1.26999998    2.61999989
   14.99666691  109.56300354    1.26999998    2.61999989
   15.00000000  116.86699677    1.28999996    2.64000010
   15.00305557  113.35099792    1.28999996    2.64000010
   15.00638866  113.24600220    1.28999996    2.64000010
   15.01222229  113.24600220    1.33000004    2.61999989
   15.01638889  107.77500153    1.34000003    2.64000010
   15.01972198  110.80699921    1.34000003    2.64000010
   15.02222157  113.58699799    1.34000003    2.64000010
   15.02333355  115.37500000    1.34000003    2.61999989
   15.02638817  111.55400085    1.34000003    2.64000010
   15.02972221  113.78700256    1.34000003    2.64000010
   15.03305531  118.26799774    1.34000003    2.61999989
   15.03611183  115.65100098    1.34000003    2.64000010
   15.03944492  115.90000153    1.34000003    2.64000010
   15.04277802  116.75499725    1.36000001    2.61999989
   15.04583359  114.22699738    1.36000001    2.64000010
   15.04916668  112.40399933    1.34000003    2.64000010
   15.05500031  112.40399933    1.33000004    2.61999989
   15.07333374  112.02200317    1.30999994    2.61999989
   15.07666683  114.06500244    1.30999994    2.61999989
   15.07999992  116.75800323    1.30999994    2.64000010
   15.08305550  108.76599884    1.28999996    2.64000010
   15.08638859  111.87200165    1.30999994    2.61999989
   15.08972168  111.97299957    1.28999996    2.61999989
   15.09277725  106.00599670    1.30999994    2.64000010
   15.09805489  106.00599670    1.33000004    2.64000010
   15.10222244  115.93199921    1.33000004    2.64000010
   15.10555553  110.10800171    1.30999994    2.64000010
   15.10638905  116.79499817    1.30999994    2.64000010
   15.10916710  109.98799896    1.33000004    2.64000010
   15.11250019  108.48999786    1.33000004    2.64000010
   15.11555576  112.03399658    1.33000004    2.61999989
   15.11888885  116.68299866    1.33000004    2.64000010
   15.12194443  107.85900116    1.33000004    2.64000010
   15.12527752  112.60800171    1.33000004    2.64000010
   15.12861156  117.11100006    1.30999994    2.64000010
   15.13166714  116.61499786    1.28999996    2.61999989
   15.13500023  115.74299622    1.28999996    2.64000010
   15.14083290  115.74299622    1.26999998    2.64000010
   15.14499950  111.27899933    1.26999998    2.64000010
   15.14833355  112.87699890    1.28999996    2.64000010
   15.15166664  112.74199677    1.26999998    2.64000010
   15.15472221  108.02600098    1.26999998    2.64000010
   15.15805531  109.99700165    1.28999996    2.64000010
   15.16111088  110.79299927    1.30999994    2.64000010
   15.16444397  114.68399811    1.28999996    2.64000010
   15.16777802  108.81099701    1.28999996    2.64000010
   15.17083359  109.84300232    1.28999996    2.64000010
   15.17305565  111.53600311    1.28999996    2.64000010
   15.17444515  112.16899872    1.28999996    2.64000010
   15.17777824  110.52899933    1.28999996    2.64000010
   15.18388939  110.52899933    1.26999998    2.64000010
   15.18805599  108.24099731    1.26999998    2.64000010
   15.19111156  112.40000153    1.26999998    2.64000010
   15.19444466  114.73500061    1.26999998    2.64000010
   15.19750023  109.49900055    1.26999998    2.64000010
   15.20083332  111.41799927    1.26999998    2.64000010
   15.20416641  113.44799805    1.26999998    2.64000010
   15.20666695  112.18099976    1.26999998    2.64000010
   15.20805550  113.86399841    1.26999998    2.64000010
   15.21138859  108.34300232    1.26999998    2.64000010
   15.21444416  114.61599731    1.28999996    2.64000010
   15.21777725  113.49099731    1.28999996    2.64000010
   15.22111034  112.48699951    1.30999994    2.64000010
   15.22666645  112.48699951    1.33000004    2.61999989
   15.23083305  112.51899719    1.33000004    2.64000010
   15.23388958  111.78700256    1.33000004    2.64000010
   15.23722267  111.79699707    1.34000003    2.64000010
   15.23972225  112.77700043    1.34000003    2.64000010
   15.24083328  111.58000183    1.34000003    2.64000010
   15.24416733  108.24400330    1.34000003    2.64000010
   15.24750042  114.08599854    1.33000004    2.64000010
   15.25055599  108.88099670    1.34000003    2.64000010
   15.25388908  109.78500366    1.34000003    2.64000010
   15.25694466  113.91899872    1.34000003    2.64000010
   15.26027775  114.73899841    1.34000003    2.64000010
   15.26361084  110.28099823    1.33000004    2.66000009
   15.26944447  110.28099823    1.30999994    2.64000010
   15.27361107  116.30100250    1.30999994    2.64000010
   15.27694416  111.76699829    1.26999998    2.64000010
   15.27999973  110.19100189    1.26999998    2.64000010
   15.28333378  112.07599640    1.26999998    2.64000010
   15.28666687  116.18699646    1.26999998    2.64000010
   15.28972244  114.12500000    1.26999998    2.64000010
   15.29305553  122.38600159    1.26999998    2.64000010
   15.29638958  118.16600037    1.26999998    2.64000010
   15.29972267  120.47899628    1.26999998    2.64000010
   15.30277824  116.03399658    1.26999998    2.64000010
   15.30611134  114.36699677    1.26999998    2.64000010
   15.30666733  115.23600006    1.25000000    2.64000010
   15.31222248  115.23600006    1.25000000    2.64000010
   15.31638908  110.26000214    1.25000000    2.64000010
   15.31972218  125.35199738    1.25000000    2.64000010
   15.32305527  118.37100220    1.25000000    2.64000010
   15.32611084  115.35399628    1.25000000    2.64000010
   15.32944393  114.43800354    1.25000000    2.64000010
   15.33277798  109.92099762    1.25000000    2.64000010
   15.33583260  109.05100250    1.25000000    2.64000010
   15.33916664  113.37100220    1.28999996    2.64000010
   15.34000015  113.25800323    1.28999996    2.64000010
   15.34277725  115.25599670    1.25000000    2.64000010
   15.34583282  110.34300232    1.25000000    2.64000010
   15.34916592  113.64299774    1.30999994    2.64000010
   15.35527802  113.64299774    1.33000004    2.64000010
   15.35944462  116.52500153    1.30999994    2.64000010
   15.36250019  113.95800018    1.30999994    2.64000010
   15.36583328  112.10900116    1.25000000    2.64000010
   15.36916637  109.55200195    1.19000006    2.66000009
   15.37222195  119.22399902    1.19000006    2.66000009
   15.37333393  114.11499786    1.19000006    2.66000009
   15.37611103  110.31199646    1.19000006    2.64000010
   15.37916660  108.77999878    1.19000006    2.64000010
   15.38249969  114.52500153    1.21000004    2.64000010
   15.38555527  112.73000336    1.19000006    2.64000010
   15.38888836  109.73999786    1.16999996    2.66000009
   15.39222240  104.97499847    1.16999996    2.66000009
   15.39805508  104.97499847    1.14999998    2.66000009
   15.40222168  109.73699951    1.13000000    2.66000009
   15.40527725  109.17900085    1.13000000    2.66000009
   15.40666676  108.87300110    1.13000000    2.66000009
   15.40916634  113.49500275    1.11000001    2.66000009
   15.41222191  111.10600281    1.09000003    2.66000009
   15.41555500  110.01899719    1.09000003    2.66000009
   15.41861153  112.13800049    1.11000001    2.66000009
   15.42194462  110.56099701    1.11000001    2.66000009
   15.42527771  116.74299622    1.11000001    2.66000009
   15.42833328  112.20600128    1.13000000    2.66000009
   15.43166733  111.36799622    1.14999998    2.66000009
   15.43500042  115.00199890    1.14999998    2.66000009
   15.44083309  115.00199890    1.19000006    2.66000009
   15.44499969  110.01599884    1.16999996    2.66000009
   15.44833374  114.51999664    1.14999998    2.66000009
   15.45138836  111.06500244    1.14999998    2.64000010
   15.45472240  109.44499969    1.14999998    2.66000009
   15.45805550  112.99500275    1.14999998    2.66000009
   15.46138859  109.84600067    1.14999998    2.66000009
   15.46444416  112.05899811    1.13000000    2.66000009
   15.46777725  105.51000214    1.11000001    2.66000009
   15.47111034  109.12599945    1.11000001    2.66000009
   15.47333336  114.64099884    1.11000001    2.66000009
   15.47472191  111.14700317    1.11000001    2.66000009
   15.47777748  112.12899780    1.11000001    2.66000009
   15.48361111  112.12899780    1.11000001    2.66000009
   15.48777771  111.38899994    1.13000000    2.66000009
   15.49111176  110.36499786    1.13000000    2.66000009
   15.49444485  110.87100220    1.13000000    2.66000009
   15.49750042  111.40799713    1.14999998    2.66000009
   15.50083351  117.28099823    1.16999996    2.66000009
   15.50416660  115.39399719    1.16999996    2.66000009
   15.50666714  113.49700165    1.19000006    2.66000009
   15.50777817  111.46399689    1.19000006    2.66000009
   15.51083374  109.44999695    1.19000006    2.66000009
   15.51416683  113.35600281    1.14999998    2.66000009
   15.51722240  110.04000092    1.14999998    2.66000009
   15.52055550  116.48300171    1.14999998    2.66000009
   15.52666664  116.48300171    1.14999998    2.66000009
   15.53055573  113.10900116    1.14999998    2.66000009
   15.53388977  112.34300232    1.14999998    2.66000009
   15.53722286  109.60099792    1.14999998    2.66000009
   15.54000092  109.59200287    1.14999998    2.66000009
   15.54083347  107.96499634    1.14999998    2.66000009
   15.54388905  108.37699890    1.16999996    2.66000009
   15.54722309  120.40399933    1.16999996    2.67000008
   15.55055618  112.69200134    1.16999996    2.66000009
   15.55361176  108.94300079    1.16999996    2.66000009
   15.55694485  116.62799835    1.16999996    2.66000009
   15.56000042  113.45099640    1.16999996    2.66000009
   15.56333351  114.15399933    1.19000006    2.67000008
   15.56944466  114.15399933    1.23000002    2.66000009
   15.57361126  120.09799957    1.25000000    2.66000009
   15.57694435  118.12100220    1.28999996    2.66000009
   15.57999992  120.29000092    1.28999996    2.66000009
   15.58333302  107.40899658    1.28999996    2.66000009
   15.58666611  114.32399750    1.28999996    2.67000008
   15.58972168  114.33799744    1.28999996    2.66000009
   15.59305477  114.80100250    1.25000000    2.66000009
   15.59611034  110.03099823    1.25000000    2.66000009
   15.59944439  110.36499786    1.25000000    2.66000009
   15.60277843  118.02700043    1.23000002    2.66000009
   15.60583401  114.89800262    1.21000004    2.66000009
   15.60666752  115.91999817    1.21000004    2.66000009
   15.61222267  115.91999817    1.19000006    2.66000009
   15.61638927  112.41500092    1.19000006    2.66000009
   15.61972237  111.86299896    1.19000006    2.66000009
   15.62277794  113.37300110    1.19000006    2.66000009
   15.62611103  116.27700043    1.19000006    2.66000009
   15.62916660  113.18900299    1.19000006    2.66000009
   15.63249969  113.86000061    1.19000006    2.66000009
   15.63583279  120.30400085    1.16999996    2.66000009
   15.63916683  111.51499939    1.16999996    2.66000009
   15.64000034  113.07199860    1.16999996    2.66000009
   15.64277744  110.98899841    1.16999996    2.66000009
   15.64583302  113.13999939    1.16999996    2.66000009
   15.64916611  119.20899963    1.16999996    2.66000009
   15.65499973  119.20899963    1.16999996    2.66000009
   15.65916634  111.72399902    1.19000006    2.67000008
   15.66249943  111.97200012    1.19000006    2.67000008
   15.66555500   -1.00000000    1.19000006    2.66000009
   15.66888905   -1.00000000    1.19000006    2.66000009
   15.67222214   -1.00000000    1.21000004    2.66000009
   15.67555618   -1.00000000    1.23000002    2.66000009
   15.67888927   -1.00000000    1.23000002    2.66000009
   15.68222237   -1.00000000    1.21000004    2.66000009
   15.68527794   -1.00000000    1.19000006    2.66000009
   15.68861103   -1.00000000    1.19000006    2.66000009
   15.69194412   -1.00000000    1.19000006    2.66000009
   15.70194435   -1.00000000    1.21000004    2.66000009
   15.70527744   -1.00000000    1.23000002    2.66000009
   15.70888901   -1.00000000    1.23000002    2.66000009
   15.71194458   -1.00000000    1.25000000    2.66000009
   15.71527767   -1.00000000    1.25000000    2.66000009
   15.71833324   -1.00000000    1.26999998    2.66000009
   15.72166634  114.29100037    1.28999996    2.66000009
   15.72499943  111.05300140    1.26999998    2.66000009
   15.72805500  114.62000275    1.25000000    2.66000009
   15.73138809  108.02100372    1.25000000    2.66000009
   15.73611164  109.42600250    1.25000000    2.66000009
   15.74083328  109.42600250    1.25000000    2.66000009
   15.74499989  111.68399811    1.25000000    2.66000009
   15.74833393  109.64900208    1.25000000    2.66000009
   15.75138855  111.31600189    1.23000002    2.66000009
   15.75472260  110.01899719    1.23000002    2.66000009
   15.75777817  114.88899994    1.23000002    2.66000009
   15.76111126  112.25199890    1.21000004    2.66000009
   15.76444435  109.23100281    1.21000004    2.66000009
   15.76749992  114.90399933    1.21000004    2.66000009
   15.77083302  120.19899750    1.21000004    2.67000008
   15.77333355  112.04199982    1.21000004    2.66000009
   15.77444458  110.42500305    1.21000004    2.66000009
   15.77750015  115.53800201    1.21000004    2.66000009
   15.78361130  115.53800201    1.21000004    2.67000008
   15.78777790  110.33399963    1.19000006    2.66000009
   15.79111195  108.40799713    1.19000006    2.66000009
   15.79416752  113.80799866    1.16999996    2.66000009
   15.79750061  113.14099884    1.14999998    2.66000009
   15.80083370  112.33999634    1.14999998    2.66000009
   15.80388927  110.61100006    1.14999998    2.66000009
   15.80666733  110.50499725    1.13000000    2.66000009
   15.80749989  111.12599945    1.13000000    2.66000009
   15.81055546  114.39499664    1.16999996    2.66000009
   15.81388950  106.95600128    1.16999996    2.67000008
   15.81722260  113.00000000    1.16999996    2.66000009
   15.82027817  115.25299835    1.14999998    2.67000008
   15.82638836  115.25299835    1.16999996    2.67000008
   15.83055592  111.34200287    1.14999998    2.67000008
   15.83388901  110.90299988    1.11000001    2.66000009
   15.83722210  112.13300323    1.11000001    2.67000008
   15.84000015  114.52300262    1.11000001    2.66000009
   15.84083271  107.64299774    1.11000001    2.66000009
   15.84388828  108.84200287    1.09000003    2.66000009
   15.84722233  111.07499695    1.09000003    2.66000009
   15.85055637  106.95099640    1.11000001    2.66000009
   15.85361195  105.64700317    1.11000001    2.66000009
   15.85694504  107.60299683    1.11000001    2.66000009
   15.86027813  105.03500366    1.13000000    2.67000008
   15.86333370  108.38899994    1.13000000    2.67000008
   15.86944485  108.38899994    1.14999998    2.66000009
   15.87361145  104.72499847    1.16999996    2.66000009
   15.87666702  104.61100006    1.16999996    2.66000009
   15.88000011  109.57399750    1.19000006    2.66000009
   15.88333321  108.02899933    1.19000006    2.66000009
   15.88638878  105.75099945    1.19000006    2.66000009
   15.88972187  108.49500275    1.19000006    2.66000009
   15.89416695  107.02899933    1.21000004    2.67000008
   15.89722252  112.43099976    1.23000002    2.66000009
   15.90055561  110.79900360    1.25000000    2.67000008
   15.90361118  108.17700195    1.26999998    2.66000009
   15.90666676  111.18800354    1.28999996    2.66000009
   15.90749931  109.44699860    1.28999996    2.66000009
   15.91222191  109.44699860    1.30999994    2.66000009
   15.91638851  105.25099945    1.30999994    2.66000009
   15.91944504  113.11599731    1.28999996    2.66000009
   15.92277813  108.77700043    1.28999996    2.67000008
   15.92611122  107.62200165    1.28999996    2.66000009
   15.92916679  105.16200256    1.28999996    2.67000008
   15.93249989  104.86599731    1.28999996    2.67000008
   15.93555546  106.55999756    1.28999996    2.66000009
   15.93888855  108.66400146    1.28999996    2.66000009
   15.94000053  102.62699890    1.28999996    2.66000009
   15.94250011  103.52400208    1.26999998    2.67000008
   15.94555569  107.20800018    1.26999998    2.67000008
   15.94888878  108.02200317    1.28999996    2.67000008
   15.95499992  108.02200317    1.30999994    2.67000008
   15.95916653  106.51999664    1.30999994    2.67000008
   15.96222210  107.56199646    1.28999996    2.67000008
   15.96555519  105.57700348    1.28999996    2.67000008
   15.96888828  110.18699646    1.30999994    2.67000008
   15.97194386  112.17400360    1.30999994    2.66000009
   15.97333336  110.55799866    1.30999994    2.66000009
   15.97583294  108.70999908    1.28999996    2.66000009
   15.97888851  118.09400177    1.28999996    2.66000009
   15.98222160  107.35700226    1.28999996    2.67000008
   15.98555565  104.91799927    1.30999994    2.66000009
   15.98861122  107.01300049    1.28999996    2.66000009
   15.99194431  106.27999878    1.28999996    2.66000009
   15.99777794  106.27999878    1.28999996    2.67000008
   16.00194359  104.43399811    1.26999998    2.67000008
   16.00527763  106.90799713    1.26999998    2.67000008
   16.00666618  110.76599884    1.26999998    2.66000009
   16.00888824  109.97399902    1.26999998    2.66000009
   16.01194382  105.12000275    1.26999998    2.66000009
   16.01527786  109.08200073    1.26999998    2.67000008
   16.01861000  106.24199677    1.26999998    2.67000008
   16.02166557  109.82199860    1.26999998    2.66000009
   16.02499962  110.33599854    1.26999998    2.66000009
   16.02833366  111.50099945    1.26999998    2.67000008
   16.03138924  107.74299622    1.26999998    2.67000008
   16.03472137  106.84100342    1.26999998    2.67000008
   16.04083252  106.84100342    1.28999996    2.66000009
   16.04472160  111.97799683    1.28999996    2.67000008
   16.04805565  106.76300049    1.26999998    2.67000008
   16.05138779  106.94799805    1.26999998    2.67000008
   16.05444336  110.13700104    1.26999998    2.67000008
   16.05777740  110.50399780    1.28999996    2.67000008
   16.06083298  109.16999817    1.28999996    2.67000008
   16.06416512  108.76200104    1.26999998    2.67000008
   16.06750107  107.69200134    1.26999998    2.67000008
   16.07055664  105.20400238    1.28999996    2.67000008
   16.07333374  116.26699829    1.28999996    2.66000009
   16.09388924  116.26699829    1.28999996    2.66000009
   16.09805679  108.26599884    1.28999996    2.67000008
   16.10138893  108.07700348    1.28999996    2.67000008
   16.10444450  111.93900299    1.28999996    2.67000008
   16.10666656  108.33899689    1.30999994    2.66000009
   16.10833359  106.41000366    1.30999994    2.66000009
   16.11138916  103.12799835    1.30999994    2.66000009
   16.11472321  103.31600189    1.30999994    2.67000008
   16.11805534  110.84100342    1.33000004    2.66000009
   16.12111092  108.42199707    1.33000004    2.66000009
   16.12444496  103.09600067    1.33000004    2.66000009
   16.12777710  111.99099731    1.33000004    2.66000009
   16.13083267  107.55100250    1.33000004    2.66000009
   16.13666725  107.55100250    1.33000004    2.67000008
   16.14083290  104.90699768    1.34000003    2.66000009
   16.14416695  108.91600037    1.36000001    2.67000008
   16.14722252  107.53500366    1.38000000    2.67000008
   16.15055466  109.19200134    1.36000001    2.66000009
   16.15388870  104.10299683    1.36000001    2.67000008
   16.15694427  109.63800049    1.36000001    2.67000008
   16.16027832  108.15200043    1.36000001    2.67000008
   16.16333389  105.63999939    1.36000001    2.66000009
   16.16666603  111.66600037    1.36000001    2.67000008
   16.17000008  104.70400238    1.36000001    2.67000008
   16.17305565  108.94699860    1.36000001    2.67000008
   16.17361069  109.77700043    1.36000001    2.67000008
   16.17972183  109.77700043    1.36000001    2.67000008
   16.18361092  106.85500336    1.36000001    2.67000008
   16.18694305  110.97200012    1.36000001    2.67000008
   16.19027710  109.30200195    1.36000001    2.67000008
   16.19333267  114.36000061    1.36000001    2.67000008
   16.19666672  106.70600128    1.34000003    2.66000009
   16.19972038  102.48699951    1.34000003    2.67000008
   16.20305634  105.29399872    1.34000003    2.67000008
   16.20639038  107.61399841    1.34000003    2.67000008
   16.20694542  103.95200348    1.34000003    2.67000008
   16.21000099  105.22499847    1.34000003    2.67000008
   16.21305656  103.30699921    1.33000004    2.66000009
   16.21638870  104.37300110    1.33000004    2.67000008
   16.22249985  104.37300110    1.33000004    2.67000008
   16.22666740  112.16799927    1.33000004    2.67000008
   16.22972298  108.48600006    1.33000004    2.67000008
   16.23305511  104.44799805    1.33000004    2.67000008
   16.23638916  110.86699677    1.33000004    2.67000008
   16.23944473  107.56600189    1.34000003    2.67000008
   16.24027824  113.14299774    1.34000003    2.67000008
   16.24305534  112.87899780    1.34000003    2.67000008
   16.24611092  112.69499969    1.34000003    2.66000009
   16.24944496  108.21199799    1.34000003    2.67000008
   16.25277710  105.81500244    1.34000003    2.67000008
   16.25583267  112.72200012    1.34000003    2.67000008
   16.25916672  107.56700134    1.36000001    2.67000008
   16.26527786  107.56700134    1.36000001    2.67000008
   16.26944351  106.78500366    1.36000001    2.67000008
   16.27249908  107.04599762    1.38000000    2.67000008
   16.27361107  108.65399933    1.38000000    2.67000008
   16.27638817  110.85600281    1.38000000    2.67000008
   16.27944374  107.48899841    1.38000000    2.67000008
   16.28277779  109.78600311    1.38000000    2.67000008
   16.28610992  107.15399933    1.38000000    2.67000008
   16.28916550  107.76399994    1.39999998    2.67000008
   16.29249954  111.72699738    1.39999998    2.67000008
   16.29555511  103.23600006    1.39999998    2.67000008
   16.29888916  107.09500122    1.39999998    2.67000008
   16.30222130  109.83100128    1.38000000    2.67000008
   16.30805397  109.83100128    1.38000000    2.67000008
   16.31250000  109.70800018    1.39999998    2.67000008
   16.31555557  106.99700165    1.39999998    2.66000009
   16.31888962  109.11499786    1.38000000    2.67000008
   16.32222366  108.07399750    1.38000000    2.67000008
   16.32527924  111.32700348    1.39999998    2.67000008
   16.32861137  109.37899780    1.36000001    2.67000008
   16.33166695  109.52500153    1.36000001    2.67000008
   16.33500099  113.05599976    1.36000001    2.67000008
   16.33833313  109.70899963    1.36000001    2.67000008
   16.34027863  111.36100006    1.36000001    2.67000008
   16.34194565  114.09300232    1.38000000    2.67000008
   16.34527779  111.56199646    1.38000000    2.67000008
   16.35083389  111.56199646    1.38000000    2.67000008
   16.35499954  113.30300140    1.38000000    2.69000006
   16.35833359  110.91600037    1.38000000    2.67000008
   16.36166763  107.05699921    1.38000000    2.67000008
   16.36472321  109.25499725    1.38000000    2.67000008
   16.36805534  112.38400269    1.38000000    2.67000008
   16.37138939  112.68499756    1.38000000    2.67000008
   16.37361145  111.82900238    1.38000000    2.67000008
   16.37500000  108.06900024    1.38000000    2.67000008
   16.37833405  102.24199677    1.38000000    2.67000008
   16.38138962  105.36499786    1.38000000    2.67000008
   16.38472176  107.23899841    1.38000000    2.67000008
   16.38805580   98.84519958    1.38000000    2.67000008
   16.39388847   98.84519958    1.38000000    2.67000008
   16.39805603  102.65699768    1.38000000    2.67000008
   16.40111160  107.52700043    1.38000000    2.66000009
   16.40444374  109.18000031    1.38000000    2.67000008
   16.40694427  104.52400208    1.38000000    2.67000008
   16.40805435  106.83399963    1.38000000    2.67000008
   16.41138840  106.59100342    1.38000000    2.67000008
   16.41444397  104.99500275    1.38000000    2.67000008
   16.41777802  108.59700012    1.39999998    2.67000008
   16.42111015  109.43599701    1.39999998    2.66000009
   16.42416573  106.82099915    1.44000006    2.67000008
   16.42749977  108.53700256    1.41999996    2.67000008
   16.43083191  106.89800262    1.41999996    2.67000008
   16.43666649  106.89800262    1.44000006    2.67000008
   16.44083214  109.11599731    1.44000006    2.67000008
   16.44388771  104.92299652    1.46000004    2.67000008
   16.44722176  104.81800079    1.48000002    2.67000008
   16.45055580  101.69300079    1.48000002    2.67000008
   16.45361137  107.93000031    1.48000002    2.67000008
   16.45694542  106.03700256    1.50000000    2.67000008
   16.46027946  108.01100159    1.51999998    2.67000008
   16.46333504  104.96299744    1.51999998    2.67000008
   16.46666718  108.21199799    1.51999998    2.66000009
   16.47000122  109.14700317    1.51999998    2.67000008
   16.47305679  102.69400024    1.51999998    2.67000008
   16.47361183  110.23999786    1.51999998    2.67000008
   16.47944450  110.23999786    1.55999994    2.67000008
   16.48361206  102.96199799    1.58000004    2.67000008
   16.48694420  105.55799866    1.60000002    2.67000008
   16.48999977  105.26399994    1.63000000    2.66000009
   16.49333382  106.43299866    1.63000000    2.66000009
   16.49666786  110.79699707    1.64999998    2.67000008
   16.49972153  103.02300262    1.64999998    2.67000008
   16.50305557  110.78800201    1.66999996    2.67000008
   16.50611115  107.84100342    1.66999996    2.67000008
   16.50694466  108.10700226    1.66999996    2.67000008
   16.50972176  109.47799683    1.69000006    2.67000008
   16.51277733  104.95700073    1.69000006    2.66000009
   16.51611137  104.30400085    1.69000006    2.67000008
   16.52222252  104.30400085    1.71000004    2.67000008
   16.52638817  106.77799988    1.73000002    2.67000008
   16.52972221  103.15100098    1.73000002    2.67000008
   16.53305435  107.96600342    1.75000000    2.67000008
   16.53610992  104.97499847    1.76999998    2.67000008
   16.53944397  103.15299988    1.80999994    2.66000009
   16.54027748  105.78099823    1.80999994    2.66000009
   16.54305458  104.16000366    1.80999994    2.66000009
   16.54611015  102.92199707    1.80999994    2.66000009
   16.54944420  103.13200378    1.83000004    2.66000009
   16.55277634  104.85399628    1.88000000    2.67000008
   16.55583191  102.56400299    1.88000000    2.66000009
   16.55916595  106.59100342    1.88000000    2.66000009
   16.56527710  106.59100342    1.88000000    2.67000008
   16.56944466  102.90899658    1.94000006    2.66000009
   16.57250023  101.61799622    1.96000004    2.66000009
   16.57361221  102.75900269    1.96000004    2.66000009
   16.57611275  106.27700043    1.96000004    2.66000009
   16.57944489  109.37899780    1.98000002    2.66000009
   16.58250046  103.06400299    1.98000002    2.66000009
   16.58583450  106.90499878    1.98000002    2.66000009
   16.58889008  108.38300323    2.00000000    2.66000009
   16.59222221  108.37500000    2.00000000    2.67000008
   16.59555626  105.47699738    2.01999998    2.67000008
   16.59861183  104.41000366    2.01999998    2.66000009
   16.60194397  106.25599670    2.01999998    2.66000009
   16.60805511  106.25599670    2.03999996    2.66000009
   16.61222267  104.26000214    2.05999994    2.67000008
   16.61555672  105.38099670    2.07999992    2.67000008
   16.61861038  110.93099976    2.09999990    2.66000009
   16.62194443  109.46600342    2.09999990    2.67000008
   16.62500000  108.17800140    2.11999989    2.66000009
   16.62833405  103.06999969    2.11999989    2.66000009
   16.63166618  105.77500153    2.13000011    2.66000009
   16.63472176  105.93099976    2.17000008    2.66000009
   16.63805580  109.49900055    2.19000006    2.66000009
   16.64027786  105.13600159    2.21000004    2.66000009
   16.64166641  109.02500153    2.21000004    2.67000008
   16.64500046  104.93299866    2.21000004    2.66000009
   16.65083313  104.93299866    2.21000004    2.66000009
   16.65499878  104.43800354    2.21000004    2.66000009
   16.65833282  106.24600220    2.23000002    2.67000008
   16.66138840  107.19899750    2.23000002    2.66000009
   16.66472244  103.64499664    2.23000002    2.66000009
   16.66805458  109.41999817    2.23000002    2.66000009
   16.67111015  110.45099640    2.25000000    2.66000009
   16.67361069  102.66999817    2.25000000    2.67000008
   16.67472076  108.37100220    2.25000000    2.67000008
   16.67805481   99.97129822    2.30999994    2.67000008
   16.68111038  111.42500305    2.34999990    2.64000010
   16.68444443  112.09899902    2.51999998    2.66000009
   16.68750000  107.66100311    2.42000008    2.66000009
   16.69361115  107.66100311    2.40000010    2.66000009
   16.69777679  107.36799622    2.28999996    2.66000009
   16.70111275  112.20200348    2.21000004    2.66000009
   16.70444489  107.33300018    2.19000006    2.66000009
   16.70694542  107.92600250    2.15000010    2.66000009
   16.70805550  105.01300049    2.13000011    2.66000009
   16.71138954  108.72799683    2.11999989    2.67000008
   16.71444511  107.94100189    2.07999992    2.66000009
   16.71777916  109.38099670    2.07999992    2.66000009
   16.72083473  107.80400085    2.07999992    2.66000009
   16.72416687  101.87200165    2.05999994    2.66000009
   16.72750092  111.26000214    2.05999994    2.66000009
   16.73055649  105.98799896    2.05999994    2.67000008
   16.73666763  105.98799896    2.05999994    2.66000009
   16.74083328  108.87699890    2.03999996    2.66000009
   16.74416733  106.88300323    2.03999996    2.67000008
   16.74722290  101.17099762    2.01999998    2.67000008
   16.75055504   99.34539795    2.00000000    2.67000008
   16.75361061  105.88800049    1.98000002    2.66000009
   16.75694466  102.43000031    1.91999996    2.67000008
   16.76027870   99.19909668    1.89999998    2.66000009
   16.76333427  106.87999725    1.86000001    2.66000009
   16.76666641  103.86299896    1.83000004    2.66000009
   16.77000046   98.79129791    1.78999996    2.66000009
   16.77305603  101.36599731    1.78999996    2.66000009
   16.77361107  103.71499634    1.76999998    2.67000008
   16.77944374  103.71499634    1.75000000    2.67000008
   16.78361130  103.53399658    1.76999998    2.67000008
   16.78666687  104.47100067    1.75000000    2.67000008
   16.78999901  105.21499634    1.75000000    2.67000008
   16.79333305  107.02500153    1.78999996    2.67000008
   16.79638863  107.34600067    1.78999996    2.67000008
   16.79972076  114.43499756    1.78999996    2.67000008
   16.80305481  101.71600342    1.78999996    2.67000008
   16.80611038  102.91300201    1.80999994    2.66000009
   16.80694389  109.15599823    1.80999994    2.66000009
   16.80972099  107.90799713    1.78999996    2.67000008
   16.81305504  107.62999725    1.76999998    2.66000009
   16.81611061  108.17500305    1.75000000    2.67000008
   16.82222366  108.17500305    1.75000000    2.67000008
   16.82638931  108.95300293    1.73000002    2.67000008
   16.82972336  109.44699860    1.73000002    2.67000008
   16.83277893  108.29100037    1.73000002    2.67000008
   16.83611107  101.43000031    1.71000004    2.67000008
   16.83944511  109.23500061    1.69000006    2.67000008
   16.84027863  109.69200134    1.69000006    2.67000008
   16.84277916  110.41500092    1.71000004    2.66000009
   16.84611130  109.28600311    1.66999996    2.66000009
   16.84916687  105.66100311    1.64999998    2.66000009
   16.85250092  107.50099945    1.63000000    2.67000008
   16.85583305  105.46700287    1.63000000    2.67000008
   16.85888863  108.56800079    1.61000001    2.67000008
   16.86499977  108.56800079    1.60000002    2.67000008
   16.86916733  100.96900177    1.63000000    2.66000009
   16.87249947  106.20999908    1.63000000    2.67000008
   16.87361145  104.34300232    1.63000000    2.67000008
   16.87611198  104.76499939    1.64999998    2.67000008
   16.87944412  108.95800018    1.66999996    2.67000008
   16.88249969  105.41400146    1.66999996    2.67000008
   16.88583374  108.42099762    1.69000006    2.66000009
   16.88916588  107.51599884    1.69000006    2.66000009
   16.89222145  107.50299835    1.71000004    2.67000008
   16.89555550  100.38300323    1.78999996    2.66000009
   16.89861107  105.71499634    1.85000002    2.67000008
   16.90194321  102.11499786    1.85000002    2.67000008
   16.90805435  102.11499786    1.86000001    2.67000008
   16.91222191  105.45800018    1.86000001    2.67000008
   16.91527748  109.58200073    1.86000001    2.66000009
   16.91860962   99.70559692    1.88000000    2.67000008
   16.92166519  113.34100342    1.88000000    2.67000008
   16.92499924  106.10700226    1.89999998    2.66000009
   16.92833328  103.99700165    1.89999998    2.67000008
   16.93138885  107.88500214    1.89999998    2.67000008
   16.93472099  104.98200226    1.89999998    2.67000008
   16.93805504  103.58399963    1.89999998    2.66000009
   16.94027710  105.02799988    1.89999998    2.66000009
   16.94138718  105.70200348    1.89999998    2.66000009
   16.94472122  103.50900269    1.89999998    2.66000009
   16.95083427  103.50900269    1.88000000    2.66000009
   16.95499992  105.60700226    1.86000001    2.67000008
   16.95805550  110.11199951    1.86000001    2.67000008
   16.96138954  105.39600372    1.88000000    2.67000008
   16.96472359  114.49299622    1.86000001    2.66000009
   16.96777916  106.87899780    1.88000000    2.67000008
   16.97111130  109.27799988    1.86000001    2.67000008
   16.97361183  106.41300201    1.86000001    2.67000008
   16.97472191  110.62899780    1.83000004    2.67000008
   16.97805595  104.53600311    1.83000004    2.67000008
   16.98111153  109.85700226    1.78999996    2.67000008
   16.98444557  111.34500122    1.75000000    2.66000009
   16.98777771  101.19499969    1.75000000    2.66000009
   16.99361229  101.19499969    1.73000002    2.67000008
   16.99777794  108.17299652    1.73000002    2.67000008
   17.00111198  104.82499695    1.75000000    2.67000008
   17.00416756  107.55200195    1.75000000    2.67000008
   17.00694466  113.55899811    1.76999998    2.66000009
   17.00777817  105.49800110    1.76999998    2.66000009
   17.01111031  106.00399780    1.78999996    2.66000009
   17.01416588  100.26499939    1.80999994    2.67000008
   17.01749992  106.05500031    1.80999994    2.66000009
   17.02083397  107.26999664    1.80999994    2.66000009
   17.02388954  105.24600220    1.78999996    2.66000009
   17.02722168  103.78800201    1.76999998    2.66000009
   17.03027725  103.51699829    1.76999998    2.67000008
   17.03666687  103.51699829    1.75000000    2.67000008
   17.04055595  100.54399872    1.71000004    2.67000008
   17.04388809  107.37699890    1.66999996    2.66000009
   17.04722214  102.86499786    1.66999996    2.66000009
   17.05027771  108.09200287    1.64999998    2.66000009
   17.05360985  103.17400360    1.63000000    2.66000009
   17.05694389  104.48400116    1.63000000    2.66000009
   17.05999947  104.28700256    1.63000000    2.66000009
   17.06333351  108.29000092    1.64999998    2.66000009
   17.06666756  106.70600128    1.64999998    2.66000009
   17.06972313  106.69200134    1.69000006    2.67000008
   17.07305717  109.50399780    1.69000006    2.67000008
   17.07389069  111.09899902    1.69000006    2.67000008
   17.07944489  111.09899902    1.71000004    2.66000009
   17.08361244  107.14499664    1.69000006    2.66000009
   17.08666801  109.02999878    1.69000006    2.66000009
   17.09000015  105.13500214    1.66999996    2.66000009
   17.10750008  100.71099854    1.73000002    2.66000009
   17.11000061  106.02400208    1.71000004    2.66000009
   17.11305618  103.29699707    1.71000004    2.66000009
   17.11638832  104.20600128    1.66999996    2.67000008
   17.12249947  104.20600128    1.66999996    2.66000009
   17.12638855  106.70600128    1.64999998    2.67000008
   17.12972260  105.62000275    1.66999996    2.66000009
   17.13305473  104.64600372    1.64999998    2.67000008
   17.13611031  105.99800110    1.64999998    2.67000008
   17.13944435  110.18499756    1.64999998    2.67000008
   17.14083290   93.03530121    1.66999996    2.67000008
   17.14305496  111.93299866    1.66999996    2.67000008
   17.14611053  108.89600372    1.66999996    2.67000008
   17.14944458  108.50700378    1.66999996    2.67000008
   17.15250015  110.26899719    1.66999996    2.66000009
   17.15583229  106.18299866    1.66999996    2.67000008
   17.15916634  101.45500183    1.66999996    2.66000009
   17.16527748  101.45500183    1.69000006    2.66000009
   17.16944313  105.51200104    1.66999996    2.67000008
   17.17249870  105.62300110    1.64999998    2.67000008
   17.17416573  103.50700378    1.64999998    2.67000008
   17.17638779   97.86450195    1.64999998    2.67000008
   17.17944336  101.16500092    1.66999996    2.67000008
   17.18277740  109.50900269    1.63000000    2.66000009
   17.18583298  112.25900269    1.66999996    2.66000009
   17.18916512  104.70700073    1.66999996    2.66000009
   17.19249916  105.82299805    1.75000000    2.67000008
   17.19583321   99.63339996    1.75000000    2.67000008
   17.19888878   98.81980133    2.00000000    2.66000009
   17.20222282   98.84269714    1.83000004    2.67000008
   17.20805550   98.84269714    1.63000000    2.66000009
   17.21222305  104.75000000    1.63000000    2.67000008
   17.21527863  100.36900330    2.03999996    2.66000009
   17.21861076  101.76300049    2.05999994    2.66000009
   17.22194481  105.48400116    2.00000000    2.66000009
   17.22500038  102.78700256    1.88000000    2.66000009
   17.22833443  104.23000336    2.09999990    2.66000009
   17.23166656  105.30899811    2.93000007    2.66000009
   17.23472214  109.89299774    4.57999992    2.64000010
   17.23805618  105.19300079    4.90999985    2.66000009
   17.24083328  113.44499969    4.90999985    2.64000010
   17.24166679  120.49400330    4.90999985    2.59999990
   17.24472237  134.00100708    4.90999985    2.36999989
   17.25083351  134.00100708    4.90999985    2.50000000
   17.25499916  112.07199860    4.90999985    2.53999996
   17.25833321  107.64099884    4.90999985    2.61999989
   17.26138878  101.11900330    3.25000000    2.66000009
   17.26472282  106.48100281    2.57999992    2.67000008
   17.26805496  106.14700317    1.88000000    2.67000008
   17.27111053  103.92700195    2.19000006    2.66000009
   17.27416611  103.69599915    2.64000010    2.66000009
   17.27499962  103.82700348    2.76999998    2.66000009
   17.27805519  107.85800171    4.00000000    2.61999989
   17.28138924  106.25700378    4.26000023    2.66000009
   17.28444481   98.83910370    4.36999989    2.66000009
   17.28777695  103.92700195    4.36999989    2.66000009
   17.29388809  103.92700195    4.36999989    2.51999998
   17.29777718   99.14969635    2.76999998    2.66000009
   17.30111122  103.41999817    2.15000010    2.66000009
   17.30444336  104.94799805    2.59999990    2.67000008
   17.30749893   97.13289642    2.64000010    2.64000010
   17.30805397  102.07399750    2.67000008    2.66000009
   17.31110954  101.58999634    2.75000000    2.66000009
   17.31444359  110.11799622    2.51999998    2.66000009
   17.31750107  105.15599823    2.61999989    2.66000009
   17.32083511  108.50199890    2.28999996    2.66000009
   17.32416725  108.29000092    2.44000006    2.66000009
   17.32722282  107.21700287    2.67000008    2.66000009
   17.33055687  104.49700165    3.00000000    2.66000009
   17.33666801  104.49700165    2.71000004    2.67000008
   17.34083366  104.59700012    2.39000010    2.66000009
   17.34111214  103.45200348    2.39000010    2.66000009
   17.34444427  103.85500336    2.44000006    2.66000009
   17.34777832  105.13600159    2.80999994    2.66000009
   17.35083389  102.81400299    2.82999992    2.66000009
   17.35416794  101.00099945    2.59999990    2.66000009
   17.35722351  103.19100189    2.40000010    2.66000009
   17.36055565  103.72000122    2.44000006    2.66000009
   17.36388969  103.29900360    2.94000006    2.66000009
   17.36694527  108.06099701    3.16000009    2.66000009
   17.37027740  108.96600342    2.82999992    2.66000009
   17.37361145  106.06300354    2.34999990    2.66000009
   17.37444496  105.92800140    2.44000006    2.66000009
   17.37944412  105.92800140    2.64000010    2.66000009
   17.38361168  111.81199646    2.34999990    2.66000009
   17.38666725  101.68099976    2.39000010    2.66000009
   17.38999939  103.63300323    2.53999996    2.66000009
   17.39333344  106.83100128    2.71000004    2.66000009
   17.39638901  107.56199646    2.73000002    2.67000008
   17.39972115  105.61900330    2.57999992    2.67000008
   17.40305519  106.30999756    2.69000006    2.66000009
   17.40611076  100.72599792    2.75000000    2.67000008
   17.40777779  100.68399811    2.78999996    2.66000009
   17.40972137  102.94999695    2.91000009    2.66000009
   17.41305542  104.48200226    2.67000008    2.66000009
   17.41611099  107.70200348    2.69000006    2.66000009
   17.42222214  107.70200348    2.71000004    2.66000009
   17.42638779  109.33899689    3.30999994    2.64000010
   17.42972183  102.75199890    4.38999987    2.64000010
   17.43277740  110.33100128    4.26999998    2.64000010
   17.43610954  106.25399780    4.90999985    2.61999989
   17.43944359  108.46399689    4.90999985    2.55999994
   17.44111061  114.29599762    4.90999985    2.50000000
   17.44305420  109.94100189    4.90999985    2.44000006
   17.44638824  101.11399841    4.90999985    2.50000000
   17.44944382  103.79499817    4.90999985    2.50000000
   17.45277786  115.39099884    4.90999985    2.50000000
   17.45583344  116.04900360    4.90999985    2.46000004
   17.45916748  113.24700165    4.90999985    2.48000002
   17.46527863  113.24700165    3.70000005    2.64000010
   17.46916771  106.52500153    2.71000004    2.67000008
   17.47249985  105.80599976    3.25000000    2.66000009
   17.47444534  107.79199982    4.23999977    2.67000008
   17.47611237  123.84300232    4.90999985    2.64000010
   17.47944450  123.00000000    4.90999985    2.42000008
   17.48250008  128.47599792    4.90999985    2.28999996
   17.48583412  154.58099365    4.90999985    2.13000011
   17.48916626  108.02300262    4.90999985    2.26999998
   17.49222183  109.50399780    4.90999985    2.50000000
   17.49555588   97.19680023    4.90999985    2.32999992
   17.49861145  102.34400177    4.90999985    2.64000010
   17.50194359  102.38400269    3.91000009    2.66000009
   17.50805473  102.38400269    3.28999996    2.66000009
   17.51222229  107.32599640    3.03999996    2.66000009
   17.51527786  100.37599945    2.46000004    2.66000009
   17.51861000  105.78600311    2.44000006    2.67000008
   17.52166557  105.12300110    2.76999998    2.66000009
   17.52499962  106.48899841    2.59999990    2.66000009
   17.52833366  102.18000031    2.73000002    2.66000009
   17.53138924  106.39800262    2.82999992    2.66000009
   17.53472137  100.96399689    3.39000010    2.66000009
   17.53805542  105.11399841    3.55999994    2.64000010
   17.54111099  108.82299805    4.67999983    2.64000010
   17.54166603  110.16000366    4.67999983    2.64000010
   17.54500008   99.35739899    4.73999977    2.64000010
   17.55083275   99.35739899    4.90999985    2.39000010
   17.55499840  112.02899933    4.90999985    2.48000002
   17.55805397   99.83860016    4.90999985    2.59999990
   17.56138802  101.97100067    4.90999985    2.66000009
   17.56472206  108.72699738    4.90999985    2.61999989
   17.56777954  111.82199860    4.90999985    2.53999996
   17.57111168  108.89800262    4.90999985    2.53999996
   17.57444572  101.93699646    4.90999985    2.55999994
   17.57472229  103.25000000    4.90999985    2.55999994
   17.57805634  107.11199951    4.90999985    2.55999994
   17.58139038  103.09500122    4.90999985    2.57999992
   17.58444595  123.15299988    4.90999985    2.44000006
   17.58777809  128.92100525    4.90999985    2.39000010
   17.59361267  128.92100525    4.90999985    2.30999994
   17.59777832  122.34500122    4.90999985    2.32999992
   17.60111237  114.93499756    4.90999985    2.26999998
   17.60416794  135.90199280    4.90999985    2.28999996
   17.60750008  115.80899811    4.90999985    2.32999992
   17.60805511  127.34700012    4.90999985    2.32999992
   17.61111069  154.24499512    4.90999985    2.36999989
   17.61444473  142.20300293    4.90999985    2.17000008
   17.61750031   -1.00000000    4.90999985    1.76999998
   17.62083435   -1.00000000    4.90999985    1.63000000
   17.62416649  255.36799622    4.90999985    1.46000004
   17.62722206  115.26399994    4.90999985    2.36999989
   17.63055611  105.66799927    4.90999985    2.61999989
   17.63638878  105.66799927    4.09999990    2.66000009
   17.64055634  113.80599976    4.90999985    2.64000010
   17.64166641  101.01200104    4.90999985    2.66000009
   17.64416695  104.48899841    4.90999985    2.66000009
   17.64749908  108.21600342    4.90999985    2.67000008
   17.65055466  158.22799683    4.90999985    2.40000010
   17.65388870   -1.00000000    4.90999985    1.98000002
   17.65722275   -1.00000000    4.90999985    1.53999996
   17.66027832   -1.00000000    4.90999985    1.55999994
   17.66361046   -1.00000000    4.90999985    1.28999996
   17.66694450   -1.00000000    4.90999985    1.58000004
   17.67000008   -1.00000000    4.90999985    1.50000000
   17.67333221   -1.00000000    4.90999985    1.23000002
   17.67944336   -1.00000000    4.90999985    1.85000002
   17.68361092   -1.00000000    4.90999985    1.61000001
   17.68666649   -1.00000000    4.90999985    1.50000000
   17.68999863   -1.00000000    4.90999985    1.11000001
   17.69305420   -1.00000000    4.90999985    1.48000002
   17.69638824   -1.00000000    4.90999985    1.25000000
   17.69972038   -1.00000000    4.90999985    0.95999998
   17.70305634   -1.00000000    4.90999985    0.95999998
   17.70611191   -1.00000000    4.90999985    0.81999999
   17.70972252   -1.00000000    4.90999985    0.86000001
   17.71305656   -1.00000000    4.90999985    0.51999998
   17.71611214   -1.00000000    4.90999985    0.46000001
   17.72638893   -1.00000000    4.90999985    1.00000000
   17.72944450   -1.00000000    4.90999985    1.19000006
   17.73277855  266.64999390    4.90999985    1.69000006
   17.73611069  184.94900513    4.90999985    2.00000000
   17.73916626  181.62399292    4.90999985    1.96000004
   17.74166679  173.63800049    4.90999985    2.25000000
   17.74277878  229.54299927    4.90999985    2.05999994
   17.74611092  134.34700012    4.90999985    2.40000010
   17.74916649  130.37300110    4.90999985    2.64000010
   17.75250053  131.38999939    4.90999985    2.64000010
   17.75583267  129.17100525    4.90999985    2.64000010
   17.75888824  138.18699646    4.90999985    2.64000010
   17.76499939  138.18699646    4.90999985    2.64000010
   17.76916695  116.13800049    4.90999985    2.57999992
   17.77249908  116.72299957    4.90999985    2.61999989
   17.77499962  131.14500427    4.90999985    2.59999990
   17.77583313  131.96800232    4.90999985    2.59999990
   17.77916718  138.51100159    4.90999985    2.53999996
   17.78222275  161.19400024    4.90999985    2.50000000
   17.78555489  154.20599365    4.90999985    2.30999994
   17.78888893  177.51499939    4.90999985    2.03999996
   17.79194450  240.10600281    4.90999985    1.89999998
   17.79527664  283.61300659    4.90999985    2.03999996
   17.79861069  189.74400330    4.90999985    1.91999996
   17.80166626  145.19900513    4.90999985    2.19000006
   17.80777740  145.19900513    4.90999985    2.39000010
   17.81194305  199.94700623    4.90999985    2.23000002
   17.81527710  211.41200256    4.90999985    2.15000010
   17.81861115  284.05099487    4.90999985    2.00000000
   17.82166672  240.75999451    4.90999985    2.07999992
   17.82500076   88.87699890    4.90999985    2.11999989
   17.82805634   -1.00000000    4.90999985    1.58000004
   17.83139038   -1.00000000    4.90999985    1.28999996
   17.83472252   -1.00000000    4.90999985    1.21000004
   17.83777809   -1.00000000    4.90999985    0.98000002
   17.84111214   -1.00000000    4.90999985    0.92000002
   17.84472275   -1.00000000    4.90999985    0.61000001
   17.85083389   -1.00000000    4.90999985    1.01999998
   17.85499954   -1.00000000    4.90999985    1.60000002
   17.85805511   29.27689934    4.90999985    1.36000001
   17.86138916   -1.00000000    4.90999985    1.66999996
   17.86444473   -1.00000000    4.90999985    1.41999996
   17.86777878   -1.00000000    4.90999985    1.09000003
   17.87111092   -1.00000000    4.90999985    0.81999999
   17.87416649   -1.00000000    4.90999985    0.40000001
   17.87777710   -1.00000000    4.90999985    0.30000001
   17.88111115   -1.00000000    4.90999985    0.34000000
   17.88416672   -1.00000000    4.90999985    0.34000000
   17.88750076   -1.00000000    4.90999985    0.64999998
   17.89361191   -1.00000000    4.90999985    1.91999996
   17.89777756  135.11799622    4.90999985    2.26999998
   17.90083313  172.91600037    4.90999985    2.05999994
   17.90416718  166.81399536    4.90999985    2.09999990
   17.90749931  144.29400635    4.90999985    2.50000000
   17.90972137  151.61799622    4.90999985    2.50000000
   17.91110992  187.17900085    4.90999985    2.46000004
   17.91416550  179.44599915    4.90999985    2.42000008
   17.91749954  181.31900024    4.90999985    2.40000010
   17.92083359  152.89799500    4.90999985    2.39000010
   17.92388916  178.07699585    4.90999985    2.40000010
   17.92722130  187.06799316    4.90999985    2.39000010
   17.93055534  156.63000488    4.90999985    2.34999990
   17.93638802  156.63000488    4.90999985    2.15000010
   17.94055557  262.61700439    4.90999985    2.09999990
   17.94305420  285.23199463    4.90999985    1.94000006
   17.94416618  232.74800110    4.90999985    2.07999992
   17.94722176  226.14199829    4.90999985    2.19000006
   17.95055580  261.12600708    4.90999985    2.21000004
   17.95388985   -1.00000000    4.90999985    1.60000002
   17.95694542   -1.00000000    4.90999985    1.36000001
   17.96027946   -1.00000000    4.90999985    0.89999998
   17.96361160   -1.00000000    4.90999985    0.64999998
   17.96666718   -1.00000000    4.90999985    0.56999999
   17.97000122   -1.00000000    4.90999985    0.79000002
   17.97305679   -1.00000000    4.90999985    0.46000001
   17.98333359   -1.00000000    4.90999985    0.81999999
   17.98666763   -1.00000000    4.90999985    0.47999999
   17.98972321   -1.00000000    4.90999985    0.44000000
   17.99305534   -1.00000000    4.90999985    0.47999999
   17.99638939   -1.00000000    4.90999985    0.25999999
   17.99944496   -1.00000000    4.90999985    0.28000000
   18.00277710   -1.00000000    4.90999985    0.47999999
   18.00611115   -1.00000000    4.90999985    0.58999997
   18.00916672   -1.00000000    4.90999985    0.67000002
   18.01277733   -1.00000000    4.90999985    0.79000002
   18.01611137   -1.00000000    4.90999985    0.51999998
   18.02611160   -1.00000000    4.90999985    2.01999998
   18.02944374   -1.00000000    4.90999985    1.48000002
   18.03277779   -1.00000000    4.90999985    1.00000000
   18.03583336   -1.00000000    4.90999985    1.19000006
   18.03916550   -1.00000000    4.90999985    1.44000006
   18.04249954   -1.00000000    4.90999985    0.95999998
   18.04583359   -1.00000000    4.90999985    0.61000001
   18.04916573   -1.00000000    4.90999985    0.34000000
   18.05222130   -1.00000000    4.90999985    0.30000001
   18.05555534   -1.00000000    4.90999985    0.46000001
   18.05888748   -1.00000000    4.90999985    0.31999999
   18.06916809   -1.00000000    4.90999985    0.95999998
   18.07222366   -1.00000000    4.90999985    0.98000002
   18.07555580   -1.00000000    4.90999985    0.80000001
   18.07916832   -1.00000000    4.90999985    0.56999999
   18.08250046   -1.00000000    4.90999985    0.25000000
   18.08555603   -1.00000000    4.90999985    0.56999999
   18.08889008   -1.00000000    4.90999985    1.03999996
   18.09194565   -1.00000000    4.90999985    1.09000003
   18.09527779  175.72900391    4.90999985    1.75000000
   18.09861183  195.36500549    4.90999985    2.17000008
   18.10166740  191.22000122    4.90999985    2.36999989
   18.10777855  191.22000122    4.90999985    2.44000006
   18.12611198  164.65699768    4.90999985    2.13000011
   18.12944412  317.40200806    4.90999985    2.19000006
   18.13277817  163.38900757    4.90999985    2.01999998
   18.13583374  157.00799561    4.90999985    2.30999994
   18.13916588  172.97200012    4.90999985    2.34999990
   18.14222145  169.18299866    4.90999985    2.51999998
   18.14555550  205.34500122    4.90999985    2.34999990
   18.15083313  205.34500122    4.90999985    2.39000010
   18.15499878  155.07499695    4.90999985    2.55999994
   18.15833282  150.35600281    4.90999985    2.55999994
   18.15916634  145.23500061    4.90999985    2.53999996
   18.16194344  130.41999817    4.90999985    2.50000000
   18.16499901  126.51999664    4.90999985    2.48000002
   18.16833305  111.33499908    4.90999985    2.53999996
   18.17166519  141.01899719    4.78000021    2.61999989
   18.17472076  122.69400024    4.32999992    2.59999990
   18.17805481  117.68399811    4.65999985    2.61999989
   18.18138885  137.17500305    4.42999983    2.61999989
   18.18444443  136.38800049    4.09999990    2.61999989
   18.18777657  117.20099640    3.93000007    2.59999990
   18.19361115  117.20099640    4.36999989    2.59999990
   18.19777679  103.56700134    4.82999992    2.59999990
   18.20111275  116.18199921    4.90999985    2.59999990
   18.20444489  132.97300720    4.90999985    2.61999989
   18.20750046  130.15600586    4.90999985    2.61999989
   18.21083450  120.71900177    4.90999985    2.61999989
   18.21416664  126.14499664    4.90999985    2.61999989
   18.21722221  118.76499939    4.90999985    2.61999989
   18.22055626  160.02999878    4.90999985    1.88000000
   18.22389030  164.29600525    4.90999985    2.46000004
   18.22583389  134.56900024    4.90999985    2.34999990
   18.22750092  129.46000671    4.90999985    2.50000000
   18.23055649   -1.00000000    4.90999985    1.36000001
   18.23666763   -1.00000000    4.90999985    1.55999994
   18.24083328   -1.00000000    4.90999985    1.16999996
   18.24388885   -1.00000000    4.90999985    0.47999999
   18.24722290   -1.00000000    4.90999985    0.83999997
   18.25027847   -1.00000000    4.90999985    1.50000000
   18.25361061  176.27600098    4.90999985    1.39999998
   18.25694466  200.80400085    4.90999985    1.33000004
   18.25916672  173.70500183    4.90999985    2.17000008
   18.26055527  118.08899689    4.90999985    2.26999998
   18.26388931  169.47399902    4.90999985    2.05999994
   18.26694489  163.50399780    4.90999985    2.01999998
   18.27027702  206.52499390    4.90999985    2.30999994
   18.27333260   -1.00000000    4.90999985    2.17000008
   18.27944374   -1.00000000    4.90999985    2.01999998
   18.28361130  120.17900085    4.90999985    2.61999989
   18.28666687  125.50700378    4.90999985    2.59999990
   18.28999901  118.85099792    4.90999985    2.55999994
   18.29249954  115.27700043    4.90999985    2.59999990
   18.29361153  109.81800079    4.90999985    2.53999996
   18.29666710  131.43499756    4.90999985    2.51999998
   18.29999924  133.18800354    4.90999985    2.48000002
   18.30333328  115.88099670    4.90999985    2.61999989
   18.30638885  117.24099731    4.90999985    2.57999992
   18.30972099  110.58499908    4.90999985    2.64000010
   18.31305504  126.56900024    4.90999985    2.59999990
   18.31611061  117.75800323    4.90999985    2.61999989
   18.32222366  117.75800323    4.86999989    2.64000010
   18.32638931  112.13899994    4.90999985    2.61999989
   18.32972336  110.49500275    4.90999985    2.61999989
   18.33277893  119.88899994    4.90999985    2.21000004
   18.33611107  124.31300354    4.90999985    2.67000008
   18.33944511  119.12300110    4.90999985    2.66000009
   18.34250069  118.20600128    4.90999985    2.36999989
   18.34583473  138.00199890    4.90999985    2.46000004
   18.34889030  108.41500092    4.90999985    2.46000004
   18.35222244  127.27100372    4.90999985    2.53999996
   18.35555649  118.83399963    4.90999985    2.46000004
   18.35861206  126.50900269    4.90999985    2.46000004
   18.35916710  118.40399933    4.90999985    2.55999994
   18.36499977  118.40399933    4.90999985    2.42000008
   18.36916733  158.32600403    4.90999985    2.26999998
   18.37249947  142.18299866    4.90999985    2.39000010
   18.37583351  136.01499939    4.90999985    2.44000006
   18.37888908  216.76400757    4.90999985    1.88000000
   18.38222313  130.99200439    4.90999985    0.89999998
   18.38527679  122.12100220    4.90999985    2.23000002
   18.38861084  148.65699768    4.90999985    2.59999990
   18.39194489  121.47000122    4.90999985    2.46000004
   18.39249992  132.45500183    4.90999985    2.50000000
   18.39555550  133.25599670    4.90999985    2.50000000
   18.39888954  142.85800171    4.90999985    2.34999990
   18.40194321  225.65100098    4.90999985    1.66999996
   18.40805435  225.65100098    4.90999985    2.48000002
   18.41222191  239.21899414    4.90999985    2.01999998
   18.41527748   -1.00000000    4.90999985    0.95999998
   18.41860962   -1.00000000    4.90999985    0.38000000
   18.42166519   -1.00000000    4.90999985    1.16999996
   18.42499924  148.88400269    4.90999985    1.71000004
   18.42583275   42.42639923    4.90999985    1.69000006
   18.42860985   -1.00000000    4.90999985    1.64999998
   18.43194389   -1.00000000    4.90999985    0.51999998
   18.43499947   -1.00000000    4.90999985    0.31999999
   18.43833160   -1.00000000    4.90999985    0.86000001
   18.44166565   -1.00000000    4.90999985    1.58000004
   18.44472122   -1.00000000    4.90999985    1.58000004
   18.45083427   -1.00000000    4.90999985    2.00000000
   18.45499992   -1.00000000    4.90999985    1.33000004
   18.45805550  176.77200317    4.90999985    2.00000000
   18.45916748  132.90499878    4.90999985    2.26999998
   18.46166801  150.87600708    4.90999985    2.48000002
   18.46500015   -1.00000000    4.90999985    0.76999998
   18.46805573   -1.00000000    4.90999985    0.30000001
   18.47138977   -1.00000000    4.90999985    0.25000000
   18.47472191   82.23269653    4.90999985    0.31999999
   18.47777748   -1.00000000    4.90999985    1.05999994
   18.48111153   -1.00000000    4.90999985    0.17000000
   18.48444557   -1.00000000    4.90999985    0.17000000
   18.48750114   -1.00000000    4.90999985    0.17000000
   18.49361229   -1.00000000    4.90999985    0.40000001
   18.49777794   -1.00000000    4.90999985    0.40000001
   18.50111198   -1.00000000    4.90999985    1.13000000
   18.50416756   -1.00000000    4.90999985    0.36000001
   18.50749969   -1.00000000    4.90999985    0.41999999
   18.51083374   -1.00000000    4.90999985    0.23000000
   18.51388931   -1.00000000    4.90999985    0.19000000
   18.51722145   -1.00000000    4.90999985    0.36000001
   18.52027702   -1.00000000    4.90999985    0.25999999
   18.52361107   -1.00000000    4.90999985    0.55000001
   18.52722168   -1.00000000    4.90999985    0.64999998
   18.53055573   -1.00000000    4.90999985    0.20999999
   18.53638840   -1.00000000    4.90999985    0.20999999
   18.54055595  103.75599670    4.90999985    0.52999997
   18.54388809  144.32499695    4.90999985    2.17000008
   18.54722214  145.72799683    4.90999985    2.34999990
   18.55027771  144.10000610    4.90999985    2.09999990
   18.55360985  133.45700073    4.90999985    2.30999994
   18.55666542  161.30000305    4.90999985    2.34999990
   18.55916595  138.15600586    4.90999985    2.28999996
   18.56027794  137.77400208    4.90999985    2.32999992
   18.56361008  133.44799805    4.90999985    2.34999990
   18.56666756  195.14599609    4.90999985    2.23000002
   18.57000160  152.40499878    4.90999985    2.28999996
   18.57333374  154.06599426    4.90999985    2.26999998
   18.57944489  154.06599426    4.90999985    2.23000002
   18.58361244  125.85700226    4.90999985    2.23000002
   18.58666801  158.36999512    4.90999985    2.32999992
   18.59000015  146.81900024    4.90999985    2.28999996
   18.59277916  122.59200287    4.90999985    2.36999989
   18.59361267  122.15599823    4.90999985    2.36999989
   18.59694481  140.10899353    4.90999985    2.23000002
   18.60000038  146.29499817    4.90999985    2.25000000
   18.60333443   -1.00000000    4.90999985    1.19000006
   18.60666656   -1.00000000    4.90999985    1.26999998
   18.60972214  251.66999817    4.90999985    1.07000005
   18.61305618  228.26300049    4.90999985    1.98000002
   18.61638832  219.72000122    4.90999985    1.98000002
   18.62222290  219.72000122    4.90999985    1.78999996
   18.62638855  139.77499390    4.90999985    1.05999994
   18.62944412  269.68600464    4.90999985    1.64999998
   18.63277817   -1.00000000   -1.00000000   -1.00000000
   18.63611031   93.70339966    4.90999985    1.80999994
   18.63916588   -1.00000000    4.90999985    1.14999998
   18.64249992   -1.00000000    4.90999985    1.11000001
   18.64583397   -1.00000000    4.90999985    1.39999998
   18.64888954   60.89530182    4.90999985    1.51999998
   18.65222168   -1.00000000    4.90999985    1.63000000
   18.65527725   -1.00000000    4.90999985    1.26999998
   18.65861130  109.49199677    4.90999985    1.51999998
   18.66916656   -1.00000000    4.90999985    1.53999996
   18.67249870   -1.00000000    4.90999985    1.38000000
   18.67555428   36.26129913    4.90999985    1.58000004
   18.67888832   -1.00000000    4.90999985    1.51999998
   18.68222237   -1.00000000    4.90999985    1.48000002
   18.68527603   -1.00000000    4.90999985    1.33000004
   18.68861008   -1.00000000    4.90999985    1.14999998
   18.69194412   -1.00000000    4.90999985    1.01999998
   18.69527626   -1.00000000    4.90999985    1.33000004
   18.69861031   -1.00000000    4.90999985    1.36000001
   18.70166779   -1.00000000    4.90999985    1.23000002
   18.70777893   -1.00000000    4.90999985    1.80999994
   18.71194458   -1.00000000    4.90999985    1.58000004
   18.71527863   -1.00000000    4.90999985    1.38000000
   18.71861076   -1.00000000    4.90999985    1.13000000
   18.72166634   -1.00000000    4.90999985    1.41999996
   18.72500038   -1.00000000    4.90999985    1.63000000
   18.72833443   -1.00000000    4.90999985    1.64999998
   18.73166656   -1.00000000    4.90999985    1.58000004
   18.73472214   -1.00000000    4.90999985    1.41999996
   18.73805618   -1.00000000    4.90999985    1.39999998
   18.74138832  128.64999390    4.90999985    1.58000004
   18.74444389  218.77000427    4.90999985    1.88000000
   18.75083351  218.77000427    4.90999985    2.19000006
   18.75499916  214.56599426    4.90999985    1.76999998
   18.75805473  138.47700500    4.90999985    1.88000000
   18.75944519  153.51100159    4.90999985    1.98000002
   18.76166725  218.89799500    4.90999985    2.09999990
   18.76499939  109.91600037    4.90999985    2.19000006
   18.76833344  213.96800232    4.90999985    1.75000000
   18.77138901   -1.00000000    4.90999985    1.63000000
   18.77472115   -1.00000000    4.90999985    0.47999999
   18.77805519   -1.00000000    4.90999985    0.67000002
   18.78111076   -1.00000000    4.90999985    1.11000001
   18.78444481   -1.00000000    4.90999985    0.46000001
   18.78750038   -1.00000000    4.90999985    0.67000002
   18.79361153   -1.00000000    4.90999985    1.09000003
   18.79777718   -1.00000000    4.90999985    1.34000003
   18.80083275   -1.00000000    4.90999985    1.16999996
   18.80416679   -1.00000000    4.90999985    0.69000000
   18.80749893   -1.00000000    4.90999985    0.61000001
   18.81055450   -1.00000000    4.90999985    0.46000001
   18.81388855   -1.00000000    4.90999985    0.61000001
   18.81722260   -1.00000000    4.90999985    1.11000001
   18.82027817   -1.00000000    4.90999985    1.64999998
   18.82361221   -1.00000000    4.90999985    1.48000002
   18.82694626   -1.00000000    4.90999985    1.01999998
   18.83027840   -1.00000000    4.90999985    0.79000002
   18.84055710   -1.00000000    4.90999985    1.05999994
   18.84361267   -1.00000000    4.90999985    1.00000000
   18.84694481   -1.00000000    4.90999985    0.36000001
   18.85027885   -1.00000000    4.90999985    0.41999999
   18.85333443   -1.00000000    4.90999985    0.55000001
   18.85666656   -1.00000000    4.90999985    1.01999998
   18.86027908   -1.00000000    4.90999985    0.83999997
   18.86361122   -1.00000000    4.90999985    0.83999997
   18.86666679   -1.00000000    4.90999985    0.70999998
   18.87000084   -1.00000000    4.90999985    0.98000002
   18.87333298  171.10800171    4.90999985    1.34000003
   18.87916756  171.10800171    4.90999985    1.64999998
   18.88333321   23.57019997    4.90999985    1.73000002
   18.88666725   -1.00000000    4.90999985    1.76999998
   18.88999939   -1.00000000    4.90999985    1.14999998
   18.89277840   23.57019997    4.90999985    1.36000001
   18.89333344   -1.00000000    4.90999985    1.19000006
   18.89666748  137.18899536    4.90999985    1.51999998
   18.89972115   -1.00000000    4.90999985    1.73000002
   18.90305519   -1.00000000    4.90999985    1.38000000
   18.90638924   -1.00000000    4.90999985    0.51999998
   18.90944481   -1.00000000    4.90999985    0.52999997
   18.91277695   -1.00000000    4.90999985    0.89999998
   18.91611099   -1.00000000    4.90999985    0.94000000
   18.92222214   -1.00000000    4.90999985    1.76999998
   18.92611122   -1.00000000    4.90999985    1.13000000
   18.92944336   -1.00000000    4.90999985    0.56999999
   18.93277740   -1.00000000    4.90999985    0.41999999
   18.93583298   -1.00000000    4.90999985    0.20999999
   18.93916512   -1.00000000    4.90999985    0.28000000
   18.94249916   -1.00000000    4.90999985    0.30000001
   18.94555473   -1.00000000    4.90999985    0.25999999
   18.94888878   -1.00000000    4.90999985    0.41999999
   18.95194435   -1.00000000    4.90999985    0.40000001
   18.95527840   -1.00000000    4.90999985    0.31999999
   18.95861244   -1.00000000    4.90999985    0.31999999
   18.96916771   -1.00000000    4.90999985    0.25000000
   18.97222328   -1.00000000    4.90999985    0.28000000
   18.97555542   -1.00000000    4.90999985    0.50000000
   18.97861099   -1.00000000    4.90999985    0.61000001
   18.98194504   -1.00000000    4.90999985    0.28000000
   18.98527718   -1.00000000    4.90999985    0.30000001
   18.98833275   -1.00000000    4.90999985    0.61000001
   18.99166679   -1.00000000    4.90999985    0.58999997
   18.99500084   -1.00000000    4.90999985    0.63000000
   18.99833298   -1.00000000    4.90999985    0.73000002
   19.00138855   -1.00000000    4.90999985    0.70999998
   19.01194382   -1.00000000    4.90999985    0.28000000
   19.01499939   -1.00000000    4.90999985    0.36000001
   19.01833344   -1.00000000    4.90999985    0.36000001
   19.02166557   -1.00000000    4.90999985    0.38000000
   19.02472115   -1.00000000    4.90999985    0.40000001
   19.02833366   -1.00000000    4.90999985    0.23000000
   19.03166580   -1.00000000    4.90999985    0.09000000
   19.03472137   -1.00000000    4.90999985    0.05000000
   19.03805542   -1.00000000    4.90999985    0.03000000
   19.04138756   -1.00000000    4.90999985    0.07000000
   19.04444313   -1.00000000    4.90999985    0.09000000
   19.05472183   -1.00000000    4.90999985    0.09000000
   19.05805397   -1.00000000    4.90999985    0.11000000
   19.06138802   -1.00000000    4.90999985    0.13000000
   19.06472206   -1.00000000    4.90999985    0.11000000
   19.06777954   -1.00000000    4.90999985    0.07000000
   19.07111168   -1.00000000    4.90999985    0.05000000
   19.07444572   -1.00000000    4.90999985    0.05000000
   19.07750130   -1.00000000    4.90999985    0.05000000
   19.08083344   -1.00000000    4.90999985    0.05000000
   19.08416748   -1.00000000    4.90999985    0.03000000
   19.08722305   -1.00000000    4.90999985    0.01000000
   19.09749985   -1.00000000    4.90999985    0.01000000
   19.10083389   -1.00000000    4.90999985    0.01000000
   19.10416794   -1.00000000    4.90999985    0.01000000
   19.10722351   -1.00000000    4.90999985    0.01000000
   19.11055565   -1.00000000    4.90999985    0.01000000
   19.11361122   -1.00000000    4.90999985    0.01000000
   19.11694527   -1.00000000    4.90999985    0.01000000
   19.12027740   -1.00000000    4.90999985    0.01000000
   19.12333298   -1.00000000    4.90999985    0.01000000
   19.15055466   -1.00000000    4.90999985    0.01000000
   19.15388870   -1.00000000    4.90999985    0.01000000
   19.15722275   -1.00000000    4.90999985    0.01000000
   19.16055489   -1.00000000    4.90999985    0.01000000
   19.16388893   -1.00000000    4.90999985    0.01000000
   19.16694450   -1.00000000    4.90999985    0.01000000
   19.17027664   -1.00000000    4.90999985    0.01000000
   19.17361069   -1.00000000    4.90999985    0.01000000
   19.17666626   -1.00000000    4.90999985    0.01000000
   19.18000031   -1.00000000    4.90999985    0.01000000
   19.18333244   -1.00000000    4.90999985    0.01000000
   19.19333267   -1.00000000    4.90999985    0.01000000
   19.19666672   -1.00000000    4.90999985    0.01000000
   19.19972038   -1.00000000    4.90999985    0.01000000
   19.20305634   -1.00000000    4.90999985    0.01000000
   19.20639038   -1.00000000    4.90999985    0.01000000
   19.20944595   -1.00000000    4.90999985    0.01000000
   19.21277809   -1.00000000    4.90999985    0.01000000
   19.21611214   -1.00000000    4.90999985    0.01000000
   19.21916771   -1.00000000    4.90999985    0.01000000
   19.22249985   -1.00000000    4.90999985    0.01000000
   19.22555542   -1.00000000    4.90999985    0.01000000
   19.23611069   -1.00000000    4.90999985    0.01000000
   19.23944473   -1.00000000    4.90999985    0.01000000
   19.24277878   -1.00000000    4.90999985    0.01000000
   19.24583435   -1.00000000    4.90999985    0.01000000
   19.24916649   -1.00000000    4.90999985    0.01000000
   19.25250053   -1.00000000    4.90999985    0.01000000
   19.25555611   -1.00000000    4.90999985    0.01000000
   19.25888824   -1.00000000    4.90999985    0.01000000
   19.26250076   -1.00000000    4.90999985    0.01000000
   19.26555634   -1.00000000    4.90999985    0.01000000
   19.26888847   -1.00000000    4.90999985    0.01000000
   19.27916718   -1.00000000    4.90999985    0.01000000
   19.28222275   -1.00000000    4.90999985    0.01000000
   19.28555489   -1.00000000    4.90999985    0.01000000
   19.28888893   -1.00000000    4.90999985    0.01000000
   19.29194450   -1.00000000    4.90999985    0.01000000
   19.29555511   -1.00000000    4.90999985    0.01000000
   19.29861069   -1.00000000    4.90999985    0.01000000
   19.30194283   -1.00000000    4.90999985    0.01000000
   19.30527687   -1.00000000    4.90999985    0.01000000
   19.30833244   -1.00000000    4.90999985    0.01000000
   19.31166649   -1.00000000    4.90999985    0.01000000
   19.32194519   -1.00000000    4.90999985    0.01000000
   19.32527924   -1.00000000    4.90999985    0.01000000
   19.32888985   -1.00000000    4.90999985    0.01000000
   19.33194542   -1.00000000    4.90999985    0.01000000
   19.33527756   -1.00000000    4.90999985    0.01000000
   19.33861160   -1.00000000    4.90999985    0.01000000
   19.34166718   -1.00000000    4.90999985    0.01000000
   19.34500122   -1.00000000    4.90999985    0.01000000
   19.34805679   -1.00000000    4.90999985    0.01000000
   19.35138893   -1.00000000    4.90999985    0.01000000
   19.35472298   -1.00000000    4.90999985    0.01000000
   19.36472321   -1.00000000    4.90999985    0.01000000
   19.36805534   -1.00000000    4.90999985    0.01000000
   19.37138939   -1.00000000    4.90999985    0.01000000
   19.37444496   -1.00000000    4.90999985    0.01000000
   19.37777710   -1.00000000    4.90999985    0.01000000
   19.38083267   -1.00000000    4.90999985    0.01000000
   19.38416672   -1.00000000    4.90999985    0.01000000
   19.38750076   -1.00000000    4.90999985    0.01000000
   19.39055634   -1.00000000    4.90999985    0.01000000
   19.39416695   -1.00000000    4.90999985    0.01000000
   19.39722252   -1.00000000    4.90999985    0.01000000
   19.40777779   -1.00000000    4.90999985    0.01000000
   19.41083336   -1.00000000    4.90999985    0.01000000
   19.41416550   -1.00000000    4.90999985    0.01000000
   19.41722107   -1.00000000    4.90999985    0.01000000
   19.42055511   -1.00000000    4.90999985    0.01000000
   19.42388916   -1.00000000    4.90999985    0.01000000
   19.42749977   -1.00000000    4.90999985    0.01000000
   19.43055534   -1.00000000    4.90999985    0.01000000
   19.43388748   -1.00000000    4.90999985    0.01000000
   19.43722153   -1.00000000    4.90999985    0.01000000
   19.44027710   -1.00000000    4.90999985    0.01000000
   19.45055580   -1.00000000    4.90999985    0.01000000
   19.45361137   -1.00000000    4.90999985    0.01000000
   19.45694542   -1.00000000    4.90999985    0.01000000
   19.46055603   -1.00000000    4.90999985    0.01000000
   19.46361160   -1.00000000    4.90999985    0.01000000
   19.46694565   -1.00000000    4.90999985    0.01000000
   19.47027779   -1.00000000    4.90999985    0.01000000
   19.47333336   -1.00000000    4.90999985    0.01000000
   19.47666740   -1.00000000    4.90999985    0.01000000
   19.47972298   -1.00000000    4.90999985    0.01000000
   19.48305511   -1.00000000    4.90999985    0.01000000
   19.49333382   -1.00000000    4.90999985    0.01000000
   19.49666786   -1.00000000    4.90999985    0.01000000
   19.49972153   -1.00000000    4.90999985    0.01000000
   19.50305557   -1.00000000    4.90999985    0.01000000
   19.50611115   -1.00000000    4.90999985    0.01000000
   19.50944519   -1.00000000    4.90999985    0.01000000
   19.51277733   -1.00000000    4.90999985    0.01000000
   19.51583290   -1.00000000    4.90999985    0.01000000
   19.51916695   -1.00000000    4.90999985    0.01000000
   19.52249908   -1.00000000    4.90999985    0.01000000
   19.52555466   -1.00000000    4.90999985    0.01000000
   19.53610992   -1.00000000    4.90999985    0.01000000
   19.53944397   -1.00000000    4.90999985    0.01000000
   19.54249954   -1.00000000    4.90999985    0.01000000
   19.54583359   -1.00000000    4.90999985    0.01000000
   19.54916573   -1.00000000    4.90999985    0.01000000
   19.55222130   -1.00000000    4.90999985    0.01000000
   19.55555534   -1.00000000    4.90999985    0.01000000
   19.55888748   -1.00000000    4.90999985    0.01000000
   19.56222153   -1.00000000    4.90999985    0.01000000
   19.56527710   -1.00000000    4.90999985    0.01000000
   19.56861115   -1.00000000    4.90999985    0.01000000
   19.57888985   -1.00000000    4.90999985    0.01000000
   19.58222389   -1.00000000    4.90999985    0.01000000
   19.58555603   -1.00000000    4.90999985    0.01000000
   19.58861160   -1.00000000    4.90999985    0.01000000
   19.59194565   -1.00000000    4.90999985    0.01000000
   19.59555626   -1.00000000    4.90999985    0.01000000
   19.59861183   -1.00000000    4.90999985    0.01000000
   19.60194397   -1.00000000    4.90999985    0.01000000
   19.60527802   -1.00000000    4.90999985    0.01000000
   19.60833359   -1.00000000    4.90999985    0.01000000
   19.61166763   -1.00000000    4.90999985    0.01000000
   19.62194443   -1.00000000    4.90999985    0.01000000
   19.62500000   -1.00000000    4.90999985    0.01000000
   19.62861061   -1.00000000    4.90999985    0.01000000
   19.63166618   -1.00000000    4.90999985    0.01000000
   19.63500023   -1.00000000    4.90999985    0.01000000
   19.63833237   -1.00000000    4.90999985    0.01000000
   19.64138794   -1.00000000    4.90999985    0.01000000
   19.64472198   -1.00000000    4.90999985    0.01000000
   19.64805603   -1.00000000    4.90999985    0.01000000
   19.65111160   -1.00000000    4.90999985    0.01000000
   19.65444374   -1.00000000    4.90999985    0.01000000
   19.66472244   -1.00000000    4.90999985    0.01000000
   19.66805458   -1.00000000    4.90999985    0.01000000
   19.67111015   -1.00000000    4.90999985    0.01000000
   19.67444420   -1.00000000    4.90999985    0.01000000
   19.67749977   -1.00000000    4.90999985    0.01000000
   19.68083191   -1.00000000    4.90999985    0.01000000
   19.68416595   -1.00000000    4.90999985    0.01000000
   19.68722153   -1.00000000    4.90999985    0.01000000
   19.69055557   -1.00000000    4.90999985    0.01000000
   19.69416618   -1.00000000    4.90999985    0.01000000
   19.69722176   -1.00000000    4.90999985    0.01000000
   19.70750046   -1.00000000    4.90999985    0.01000000
   19.71083450   -1.00000000    4.90999985    0.01000000
   19.71416664   -1.00000000    4.90999985    0.01000000
   19.71722221   -1.00000000    4.90999985    0.01000000
   19.72055626   -1.00000000    4.90999985    0.01000000
   19.72361183   -1.00000000    4.90999985    0.01000000
   19.72722244   -1.00000000    4.90999985    0.01000000
   19.73027802   -1.00000000    4.90999985    0.01000000
   19.73361206   -1.00000000    4.90999985    0.01000000
   19.73694420   -1.00000000    4.90999985    0.01000000
   19.73999977   -1.00000000    4.90999985    0.01000000
   19.75027847   -1.00000000    4.90999985    0.01000000
   19.75361061   -1.00000000    4.90999985    0.01000000
   19.75694466   -1.00000000    4.90999985    0.01000000
   19.76055527   -1.00000000    4.90999985    0.01000000
   19.76388931   -1.00000000    4.90999985    0.01000000
   19.76694489   -1.00000000    4.90999985    0.01000000
   19.77027702   -1.00000000    4.90999985    0.01000000
   19.77333260   -1.00000000    4.90999985    0.01000000
   19.77666664   -1.00000000    4.90999985    0.01000000
   19.78000069   -1.00000000    4.90999985    0.01000000
   19.78305435   -1.00000000    4.90999985    0.01000000
   19.79333305   -1.00000000    4.90999985    0.01000000
   19.79638863   -1.00000000    4.90999985    0.01000000
   19.79972076   -1.00000000    4.90999985    0.01000000
   19.80305481   -1.00000000    4.90999985    0.01000000
   19.80611038   -1.00000000    4.90999985    0.01000000
   19.80944443   -1.00000000    4.90999985    0.01000000
   19.81250000   -1.00000000    4.90999985    0.01000000
   19.81583214   -1.00000000    4.90999985    0.01000000
   19.81916809   -1.00000000    4.90999985    0.01000000
   19.82222366   -1.00000000    4.90999985    0.01000000
   19.82555580   -1.00000000    4.90999985    0.01000000
   19.83611107   -1.00000000    4.90999985    0.01000000
   19.83944511   -1.00000000    4.90999985    0.01000000
   19.84250069   -1.00000000    4.90999985    0.01000000
   19.84583473   -1.00000000    4.90999985    0.01000000
   19.84889030   -1.00000000    4.90999985    0.01000000
   19.85222244   -1.00000000    4.90999985    0.01000000
   19.85555649   -1.00000000    4.90999985    0.01000000
   19.85861206   -1.00000000    4.90999985    0.01000000
   19.86222267   -1.00000000    4.90999985    0.01000000
   19.86555672   -1.00000000    4.90999985    0.01000000
   19.86861038   -1.00000000    4.90999985    0.01000000
   19.87888908   -1.00000000    4.90999985    0.01000000
   19.88222313   -1.00000000    4.90999985    0.01000000
   19.88527679   -1.00000000    4.90999985    0.01000000
   19.88861084   -1.00000000    4.90999985    0.01000000
   19.89194489   -1.00000000    4.90999985    0.01000000
   19.89527702   -1.00000000    4.90999985    0.01000000
   19.89861107   -1.00000000    4.90999985    0.01000000
   19.90166664   -1.00000000    4.90999985    0.01000000
   19.90499878   -1.00000000    4.90999985    0.01000000
   19.90805435   -1.00000000    4.90999985    0.01000000
   19.91138840   -1.00000000    4.90999985    0.01000000
   19.92166519   -1.00000000    4.90999985    0.01000000
   19.92499924   -1.00000000    4.90999985    0.01000000
   19.92860985   -1.00000000    4.90999985    0.01000000
   19.93194389   -1.00000000    4.90999985    0.01000000
   19.93499947   -1.00000000    4.90999985    0.01000000
   19.93833160   -1.00000000    4.90999985    0.01000000
   19.94138718   -1.00000000    4.90999985    0.01000000
   19.94472122   -1.00000000    4.90999985    0.01000000
   19.94805527   -1.00000000    4.90999985    0.01000000
   19.95111275   -1.00000000    4.90999985    0.01000000
   19.95444489   -1.00000000    4.90999985    0.01000000
   19.96472359   -1.00000000    4.90999985    0.01000000
