    HOUR (UT)   FLARE FACTOR    SKY TESTER    SUN TESTER
   10.00000000   10.00000000    0.00000000    0.00000000
   10.00000000   11.00000000   89.91580200   50.00000000
   10.00000000   11.00000000   91.71029663   50.00000000
   10.00000000   11.00000000   98.25000000   50.00000000
   10.00000000   11.00000000   94.40110016   50.00000000
   10.00000000   11.00000000   93.09600067   50.00000000
   10.00000000   11.00000000   86.39420319   50.00000000
   10.00000000   11.00000000   85.60790253   50.00000000
   10.00000000   11.00000000   84.41079712   50.00000000
   10.00000000   11.00000000   86.08470154   50.00000000
   10.00000000   11.00000000   89.57949829   50.00000000
   10.00000000   11.00000000   86.22820282   50.00000000
   10.00000000   11.00000000   90.35469818   50.00000000
   10.00000000   11.00000000   89.25789642   50.00000000
   10.00000000   11.00000000   87.52919769   50.00000000
   10.00000000   11.00000000   86.00959778   50.00000000
   10.00000000   11.00000000   88.51730347   50.00000000
   10.00000000   11.00000000   89.15720367   50.00000000
   10.00000000   11.00000000   86.12509918   50.00000000
   10.00000000   11.00000000   87.83529663   50.00000000
   10.00000000   11.00000000   95.34030151   50.00000000
   10.00000000   11.00000000   88.57929993   50.00000000
   10.00000000   11.00000000   89.85900116   50.00000000
   10.00000000   11.00000000  109.39600372   50.00000000
   10.00000000   11.00000000   89.15249634   50.00000000
   10.00000000   11.00000000   93.22550201   50.00000000
   10.00000000   11.00000000   89.73380280   50.00000000
   10.00000000   11.00000000   90.67350006   50.00000000
   10.00000000   11.00000000   83.76979828   50.00000000
   10.00000000   11.00000000   83.47440338   50.00000000
   10.00000000   11.00000000   85.47509766   50.00000000
   10.00000000   11.00000000   87.76260376   50.00000000
   10.00000000   11.00000000   88.49790192   50.00000000
   10.00000000   11.00000000   85.76480103   50.00000000
   10.00000000   11.00000000   81.38569641   50.00000000
   10.00000000   11.00000000   82.97360229   50.00000000
   10.00000000   11.00000000   87.83769989   50.00000000
   10.00000000   11.00000000   86.00869751   50.00000000
   10.00000000   11.00000000   86.17350006   50.00000000
   10.00000000   11.00000000   87.66539764   50.00000000
   10.00000000   11.00000000   85.01619720   50.00000000
   10.00000000   11.00000000   85.98220062   50.00000000
   10.00000000   11.00000000   91.14160156   50.00000000
   10.00000000   11.00000000   96.85089874   50.00000000
   10.00000000   11.00000000   92.15380096   50.00000000
   10.00000000   11.00000000   97.62210083   50.00000000
   10.00000000   11.00000000   96.07859802   50.00000000
   10.00000000   11.00000000   84.16889954   50.00000000
   10.00000000   11.00000000   90.89299774   50.00000000
   10.00000000   11.00000000   82.17420197   50.00000000
   10.00000000   11.00000000   84.51460266   50.00000000
   10.00000000   11.00000000   86.53859711   50.00000000
   10.00000000   11.00000000   92.58679962   50.00000000
   10.00000000   11.00000000   90.11589813   50.00000000
   10.00000000   11.00000000   82.65869904   50.00000000
   10.00000000   11.00000000   88.49729919   50.00000000
   10.00000000   11.00000000   92.66570282   50.00000000
   10.00000000   11.00000000   83.91940308   50.00000000
   10.00000000   11.00000000   85.47969818   50.00000000
   10.00000000   11.00000000   89.03079987   50.00000000
   10.00000000   11.00000000   91.93910217   50.00000000
   10.00000000   11.00000000   87.84999847   50.00000000
   10.00000000   11.00000000   84.76619720   50.00000000
   10.00000000   11.00000000   82.14510345   50.00000000
   10.00000000   11.00000000   83.62809753   50.00000000
   10.00000000   11.00000000   83.91529846   50.00000000
   10.00000000   11.00000000   84.13710022   50.00000000
   10.00000000   11.00000000   85.58830261   50.00000000
   10.00000000   11.00000000   91.09809875   50.00000000
   10.00000000   11.00000000   98.15579987   50.00000000
   10.00000000   11.00000000   93.76210022   50.00000000
   10.00000000   11.00000000   97.78459930   50.00000000
   10.00000000   11.00000000  100.66200256   50.00000000
   10.00000000   11.00000000   85.43029785   50.00000000
   10.00000000   11.00000000   89.27220154   50.00000000
   10.00000000   11.00000000   91.79879761   50.00000000
   10.00000000   11.00000000   90.77490234   50.00000000
   10.00000000   11.00000000   91.73639679   50.00000000
   10.00000000   11.00000000   89.55130005   50.00000000
   10.00000000   11.00000000  102.72000122   50.00000000
   10.00000000   11.00000000  106.27999878   50.00000000
   10.00000000   11.00000000  100.46800232   50.00000000
   10.00000000   11.00000000  102.73100281   50.00000000
   10.00000000   11.00000000   92.74160004   50.00000000
   10.00000000   11.00000000  104.17500305   50.00000000
   10.00000000   11.00000000   97.94069672   50.00000000
   10.00000000   11.00000000  107.80999756   50.00000000
   10.00000000   11.00000000  119.55400085   50.00000000
   10.00000000   11.00000000  114.27600098   50.00000000
   10.00000000   11.00000000  104.67500305   50.00000000
   10.00000000   11.00000000   90.82790375   50.00000000
   10.00000000   11.00000000  110.47200012   50.00000000
   10.00000000   11.00000000   99.50229645   50.00000000
   10.00000000   11.00000000  103.26499939   50.00000000
   10.00000000   11.00000000  115.81700134   50.00000000
   10.00000000   11.00000000   98.57389832   50.00000000
   10.00000000   11.00000000  116.82099915   50.00000000
   10.00000000   11.00000000  126.01499939   50.00000000
   10.00000000   11.00000000  124.87599945   50.00000000
   10.00000000   11.00000000  108.58799744   50.00000000
   10.00000000   11.00000000  125.80100250   50.00000000
   10.00000000   11.00000000  112.74099731   50.00000000
   10.00000000   11.00000000  104.97299957   50.00000000
   10.00000000   11.00000000   98.15090179   50.00000000
   10.00000000   11.00000000   96.57399750   50.00000000
   10.00000000   11.00000000  117.23400116   50.00000000
   10.00000000   11.00000000  101.88700104   50.00000000
   10.00000000   11.00000000  115.05799866   50.00000000
   10.00000000   11.00000000  115.73899841   50.00000000
   10.00000000   11.00000000  124.28600311   50.00000000
   10.00000000   11.00000000  202.32499695   50.00000000
   10.00000000   11.00000000   91.35489655   50.00000000
   10.00000000   11.00000000  157.46600342   50.00000000
   10.00000000   11.00000000  140.72599792   50.00000000
   10.00000000   11.00000000  141.74400330   50.00000000
   10.00000000   11.00000000   -1.00000000   50.00000000
   10.00000000   11.00000000  183.91499329   50.00000000
   10.00000000   11.00000000  170.84300232   50.00000000
   10.00000000   11.00000000  211.63200378   50.00000000
   10.00000000   11.00000000  129.27600098   50.00000000
   10.00000000   11.00000000  120.01000214   50.00000000
   10.00000000   11.00000000  124.72100067   50.00000000
   10.00000000   11.00000000  117.91600037   50.00000000
   10.00000000   11.00000000  119.32099915   50.00000000
   10.00000000   11.00000000  174.75300598   50.00000000
   10.00000000   11.00000000   -1.00000000   50.00000000
   10.00000000   11.00000000   -1.00000000   50.00000000
   10.00000000   11.00000000   -1.00000000   50.00000000
   10.00000000   11.00000000   -1.00000000   50.00000000
   10.00000000   11.00000000   -1.00000000   50.00000000
   10.00000000   11.00000000   -1.00000000   50.00000000
   10.00000000   11.00000000   -1.00000000   50.00000000
   10.00000000   11.00000000   -1.00000000   50.00000000
   10.00000000   11.00000000   -1.00000000   50.00000000
   10.00000000   11.00000000   -1.00000000   50.00000000
   10.00000000   11.00000000   -1.00000000   50.00000000
   10.00000000   11.00000000   -1.00000000   50.00000000
   10.00000000   11.00000000   -1.00000000   50.00000000
   10.00000000   11.00000000   -1.00000000   50.00000000
   10.00000000   11.00000000   -1.00000000   50.00000000
   10.00000000   11.00000000   -1.00000000   50.00000000
   10.00000000   11.00000000   -1.00000000   50.00000000
   10.00000000   11.00000000   -1.00000000   50.00000000
   10.00000000   11.00000000   -1.00000000   50.00000000
   10.00000000   11.00000000   -1.00000000   50.00000000
   10.00000000   11.00000000   -1.00000000   50.00000000
   10.00000000   11.00000000  190.35099792   50.00000000
   10.00000000   11.00000000  207.13099670   50.00000000
   10.00000000   11.00000000  105.57199860   50.00000000
   10.00000000   11.00000000  163.53199768   50.00000000
   10.00000000   11.00000000  140.15400696   50.00000000
   10.00000000   11.00000000   97.61940002   50.00000000
   10.00000000   11.00000000  104.31900024   50.00000000
   10.00000000   11.00000000  105.12899780   50.00000000
   10.00000000   11.00000000   98.89530182   50.00000000
   10.00000000   11.00000000  102.95099640   50.00000000
   10.00000000   11.00000000  110.97000122   50.00000000
   10.00000000   11.00000000  126.81500244   50.00000000
   10.00000000   11.00000000  150.51100159   50.00000000
   10.00000000   11.00000000  152.21200562   50.00000000
   10.00000000   11.00000000  119.05100250   50.00000000
   10.00000000   11.00000000  119.43699646   50.00000000
   10.00000000   11.00000000  103.24900055   50.00000000
   10.00000000   11.00000000  113.86499786   50.00000000
   10.00000000   11.00000000  117.70800018   50.00000000
   10.00000000   11.00000000  131.45199585   50.00000000
   10.00000000   11.00000000  103.95200348   50.00000000
   10.00000000   11.00000000  101.41899872   50.00000000
   10.00000000   11.00000000   97.94319916   50.00000000
   10.00000000   11.00000000   98.26850128   50.00000000
   10.00000000   11.00000000  106.45400238   50.00000000
   10.00000000   11.00000000  117.70099640   50.00000000
   10.00000000   11.00000000  110.62300110   50.00000000
   10.00000000   11.00000000  159.15499878   50.00000000
   10.00000000   11.00000000  159.39399719   50.00000000
   10.00000000   11.00000000  152.16200256   50.00000000
   10.00000000   11.00000000  136.97900391   50.00000000
   10.00000000   11.00000000  115.28099823   50.00000000
   10.00000000   11.00000000  145.21699524   50.00000000
   10.00000000   11.00000000  123.97200012   50.00000000
   10.00000000   11.00000000  119.78900146   50.00000000
   10.00000000   11.00000000  121.21499634   50.00000000
   10.00000000   11.00000000  172.06799316   50.00000000
   10.00000000   11.00000000  162.05099487   50.00000000
   10.00000000   11.00000000  176.84899902   50.00000000
   10.00000000   11.00000000  165.09399414   50.00000000
   10.00000000   11.00000000  162.27299500   50.00000000
   10.00000000   11.00000000  178.02000427   50.00000000
   10.00000000   11.00000000  202.57200623   50.00000000
   10.00000000   11.00000000  219.49400330   50.00000000
   10.00000000   11.00000000  163.97599792   50.00000000
   10.00000000   11.00000000  184.30400085   50.00000000
   10.00000000   11.00000000  170.13000488   50.00000000
   10.00000000   11.00000000  165.21899414   50.00000000
   10.00000000   11.00000000  173.30799866   50.00000000
   10.00000000   11.00000000  144.20500183   50.00000000
   10.00000000   11.00000000  175.17399597   50.00000000
   10.00000000   11.00000000  111.34100342   50.00000000
   10.00000000   11.00000000  107.43499756   50.00000000
   10.00000000   11.00000000  101.58899689   50.00000000
   10.00000000   11.00000000   95.31250000   50.00000000
   10.00000000   11.00000000  100.43599701   50.00000000
   10.00000000   11.00000000   92.66089630   50.00000000
   10.00000000   11.00000000   93.46659851   50.00000000
   10.00000000   11.00000000   93.28759766   50.00000000
   10.00000000   11.00000000   89.59269714   50.00000000
   10.00000000   11.00000000   89.69789886   50.00000000
   10.00000000   11.00000000   87.06900024   50.00000000
   10.00000000   11.00000000   85.44760132   50.00000000
   10.00000000   11.00000000   88.16760254   50.00000000
   10.00000000   11.00000000   84.21269989   50.00000000
   10.00000000   11.00000000   93.98560333   50.00000000
   10.00000000   11.00000000   95.32199860   50.00000000
   10.00000000   11.00000000   84.77439880   50.00000000
   10.00000000   11.00000000   85.60320282   50.00000000
   10.00000000   11.00000000   87.63430023   50.00000000
   10.00000000   11.00000000   91.31079865   50.00000000
   10.00000000   11.00000000   89.97049713   50.00000000
   10.00000000   11.00000000   90.74299622   50.00000000
   10.00000000   11.00000000   83.06559753   50.00000000
   10.00000000   11.00000000   91.06269836   50.00000000
   10.00000000   11.00000000   89.66349792   50.00000000
   10.00000000   11.00000000   83.57649994   50.00000000
   10.00000000   11.00000000   83.80860138   50.00000000
   10.00000000   11.00000000   82.31770325   50.00000000
   10.00000000   11.00000000   87.61260223   50.00000000
   10.00000000   11.00000000   91.82630157   50.00000000
   10.00000000   11.00000000   86.72499847   50.00000000
   10.00000000   11.00000000   87.50579834   50.00000000
   10.00000000   11.00000000   90.78029633   50.00000000
   10.00000000   11.00000000   94.79709625   50.00000000
   10.00000000   11.00000000  114.46700287   50.00000000
   10.00000000   11.00000000  109.22599792   50.00000000
   10.00000000   11.00000000  121.37300110   50.00000000
   10.00000000   11.00000000   94.02999878   50.00000000
   10.00000000   11.00000000   96.87740326   50.00000000
   10.00000000   11.00000000   90.02850342   50.00000000
   10.00000000   11.00000000   89.43869781   50.00000000
   10.00000000   11.00000000   95.23459625   50.00000000
   10.00000000   11.00000000   92.39910126   50.00000000
   10.00000000   11.00000000   90.07779694   50.00000000
   10.00000000   11.00000000   89.39499664   50.00000000
   10.00000000   11.00000000   87.55329895   50.00000000
   10.00000000   11.00000000   90.34339905   50.00000000
   10.00000000   12.00000000   84.15930176   50.00000000
   10.00000000   12.00000000   86.55629730   50.00000000
   10.00000000   12.00000000   85.83670044   50.00000000
   10.00000000   12.00000000   90.80660248   50.00000000
   10.00000000   12.00000000   82.16329956   50.00000000
   10.00000000   12.00000000   89.11720276   50.00000000
   10.00000000   12.00000000   85.98970032   50.00000000
   10.00000000   12.00000000   85.96350098   50.00000000
   10.00000000   12.00000000   89.28759766   50.00000000
   10.00000000   12.00000000   86.66699982   50.00000000
   10.00000000   12.00000000   80.04900360   50.00000000
   10.00000000   12.00000000  105.52600098   50.00000000
   10.00000000   12.00000000   99.01219940   50.00000000
   10.00000000   12.00000000   95.87220001   50.00000000
   10.00000000   12.00000000   91.89150238   50.00000000
   10.00000000   12.00000000  118.66200256   50.00000000
   10.00000000   12.00000000  158.76600647   50.00000000
   10.00000000   12.00000000  157.91200256   50.00000000
   10.00000000   12.00000000  108.51200104   50.00000000
   10.00000000   12.00000000  103.69300079   50.00000000
   10.00000000   12.00000000  102.64099884   50.00000000
   10.00000000   12.00000000   91.41159821   50.00000000
   10.00000000   12.00000000   96.02059937   50.00000000
   10.00000000   12.00000000   96.93779755   50.00000000
   10.00000000   12.00000000   86.25740051   50.00000000
   10.00000000   12.00000000   85.71569824   50.00000000
   10.00000000   12.00000000   87.41899872   50.00000000
   10.00000000   12.00000000   86.87490082   50.00000000
   10.00000000   12.00000000   88.57900238   50.00000000
   10.00000000   12.00000000   83.31520081   50.00000000
   10.00000000   12.00000000   90.51889801   50.00000000
   10.00000000   12.00000000   88.85369873   50.00000000
   10.00000000   12.00000000   86.84339905   50.00000000
   10.00000000   12.00000000   84.82189941   50.00000000
   10.00000000   12.00000000   86.22889709   50.00000000
   10.00000000   12.00000000   87.79010010   50.00000000
   10.00000000   12.00000000   81.63320160   50.00000000
   10.00000000   12.00000000   83.26100159   50.00000000
   10.00000000   12.00000000   84.45110321   50.00000000
   10.00000000   12.00000000   86.86589813   50.00000000
   10.00000000   12.00000000   84.08419800   50.00000000
   10.00000000   12.00000000   85.82559967   50.00000000
   10.00000000   12.00000000   94.39739990   50.00000000
   10.00000000   12.00000000   90.94709778   50.00000000
   10.00000000   12.00000000   88.62650299   50.00000000
   10.00000000   12.00000000   84.10710144   50.00000000
   10.00000000   12.00000000   82.18080139   50.00000000
   10.00000000   12.00000000   86.76349640   50.00000000
   10.00000000   12.00000000   83.10829926   50.00000000
   10.00000000   12.00000000   86.52239990   50.00000000
   10.00000000   12.00000000   84.06030273   50.00000000
   10.00000000   12.00000000   87.33249664   50.00000000
   10.00000000   12.00000000   94.17929840   50.00000000
   10.00000000   12.00000000   95.03299713   50.00000000
   10.00000000   12.00000000   93.87229919   50.00000000
   10.00000000   12.00000000   88.51029968   50.00000000
   10.00000000   12.00000000  100.32499695   50.00000000
   10.00000000   12.00000000   97.49259949   50.00000000
   10.00000000   12.00000000   91.63950348   50.00000000
   10.00000000   12.00000000   86.16059875   50.00000000
   10.00000000   12.00000000   94.55519867   50.00000000
   10.00000000   12.00000000   90.74369812   50.00000000
   10.00000000   12.00000000   91.59629822   50.00000000
   10.00000000   12.00000000   93.83499908   50.00000000
   10.00000000   12.00000000  114.44699860   50.00000000
   10.00000000   12.00000000  127.98100281   50.00000000
   10.00000000   12.00000000   -1.00000000   50.00000000
   10.00000000   12.00000000   -1.00000000   50.00000000
   10.00000000   12.00000000   -1.00000000   50.00000000
   10.00000000   12.00000000   -1.00000000   50.00000000
   10.00000000   12.00000000   -1.00000000   50.00000000
   10.00000000   12.00000000   -1.00000000   50.00000000
   10.00000000   12.00000000   -1.00000000   50.00000000
   10.00000000   12.00000000   -1.00000000   50.00000000
   10.00000000   12.00000000   -1.00000000   50.00000000
   10.00000000   12.00000000   -1.00000000   50.00000000
   10.00000000   12.00000000   -1.00000000   50.00000000
   10.00000000   12.00000000   -1.00000000   50.00000000
   10.00000000   12.00000000   -1.00000000   50.00000000
   10.00000000   12.00000000   -1.00000000   50.00000000
   10.00000000   12.00000000   -1.00000000   50.00000000
   10.00000000   12.00000000   -1.00000000   50.00000000
   10.00000000   12.00000000  199.33399963   50.00000000
   10.00000000   12.00000000  169.67700195   50.00000000
   10.00000000   12.00000000  128.16299438   50.00000000
   10.00000000   12.00000000  128.45899963   50.00000000
   10.00000000   12.00000000  130.35899353   50.00000000
   10.00000000   12.00000000  127.22200012   50.00000000
   10.00000000   12.00000000   -1.00000000   50.00000000
   10.00000000   12.00000000   -1.00000000   50.00000000
   10.00000000   12.00000000   -1.00000000   50.00000000
   10.00000000   12.00000000  105.36299896   50.00000000
   10.00000000   12.00000000  190.71000671   50.00000000
   10.00000000   12.00000000  129.55999756   50.00000000
   10.00000000   12.00000000  109.84899902   50.00000000
   10.00000000   12.00000000  117.08200073   50.00000000
   10.00000000   12.00000000  111.79799652   50.00000000
   10.00000000   12.00000000   99.58799744   50.00000000
   10.00000000   12.00000000   90.66139984   50.00000000
   10.00000000   12.00000000   93.65299988   50.00000000
   10.00000000   12.00000000   92.27780151   50.00000000
   10.00000000   12.00000000   89.73439789   50.00000000
   10.00000000   12.00000000   84.66359711   50.00000000
   10.00000000   12.00000000   87.91470337   50.00000000
   10.00000000   12.00000000   80.96579742   50.00000000
   10.00000000   12.00000000   79.15429688   50.00000000
   10.00000000   12.00000000   79.73290253   50.00000000
   10.00000000   12.00000000   88.55319977   50.00000000
   10.00000000   12.00000000   84.81009674   50.00000000
   10.00000000   12.00000000   89.73079681   50.00000000
   10.00000000   12.00000000   82.78289795   50.00000000
   10.00000000   12.00000000   86.78079987   50.00000000
   10.00000000   12.00000000   82.71810150   50.00000000
   10.00000000   12.00000000   81.29049683   50.00000000
   10.00000000   12.00000000   81.18450165   50.00000000
   10.00000000   12.00000000   81.59079742   50.00000000
   10.00000000   12.00000000   85.37500000   50.00000000
   10.00000000   12.00000000   86.47329712   50.00000000
   10.00000000   12.00000000   84.24240112   50.00000000
   10.00000000   12.00000000   85.32409668   50.00000000
   10.00000000   12.00000000   88.68620300   50.00000000
   10.00000000   12.00000000   90.93800354   50.00000000
   10.00000000   12.00000000   88.52179718   50.00000000
   10.00000000   12.00000000   93.06849670   50.00000000
   10.00000000   12.00000000   85.50409698   50.00000000
   10.00000000   12.00000000   96.25520325   50.00000000
   10.00000000   12.00000000  106.99199677   50.00000000
   10.00000000   12.00000000   96.13819885   50.00000000
   10.00000000   12.00000000  103.17500305   50.00000000
   10.00000000   12.00000000   95.13069916   50.00000000
   10.00000000   12.00000000  104.00099945   50.00000000
   10.00000000   12.00000000  130.07499695   50.00000000
   10.00000000   12.00000000  105.53800201   50.00000000
   10.00000000   12.00000000   -1.00000000   50.00000000
   10.00000000   12.00000000   -1.00000000   50.00000000
   10.00000000   12.00000000   -1.00000000   50.00000000
   10.00000000   12.00000000   -1.00000000   50.00000000
   10.00000000   12.00000000  102.00900269   50.00000000
   10.00000000   12.00000000  124.43299866   50.00000000
   10.00000000   12.00000000  147.33799744   50.00000000
   10.00000000   12.00000000  138.74600220   50.00000000
   10.00000000   12.00000000   89.41190338   50.00000000
   10.00000000   12.00000000   91.12039948   50.00000000
   10.00000000   12.00000000  113.79900360   50.00000000
   10.00000000   12.00000000  117.70999908   50.00000000
   10.00000000   12.00000000  141.56399536   50.00000000
   10.00000000   12.00000000  113.13300323   50.00000000
   10.00000000   12.00000000  159.38499451   50.00000000
   10.00000000   12.00000000   -1.00000000   50.00000000
   10.00000000   12.00000000   -1.00000000   50.00000000
   10.00000000   12.00000000   -1.00000000   50.00000000
   10.00000000   12.00000000   -1.00000000   50.00000000
   10.00000000   12.00000000   -1.00000000   50.00000000
   10.00000000   12.00000000   -1.00000000   50.00000000
   10.00000000   12.00000000   -1.00000000   50.00000000
   10.00000000   12.00000000   -1.00000000   50.00000000
   10.00000000   12.00000000   -1.00000000   50.00000000
   10.00000000   12.00000000   -1.00000000   50.00000000
   10.00000000   12.00000000   -1.00000000   50.00000000
   10.00000000   12.00000000   -1.00000000   50.00000000
   10.00000000   12.00000000   -1.00000000   50.00000000
   10.00000000   12.00000000   -1.00000000   50.00000000
   10.00000000   12.00000000   -1.00000000   50.00000000
   10.00000000   12.00000000   -1.00000000   50.00000000
   10.00000000   12.00000000   -1.00000000   50.00000000
   10.00000000   12.00000000   -1.00000000   50.00000000
   10.00000000   12.00000000          -NaN   50.00000000
   10.00000000   12.00000000  145.43699646   50.00000000
   10.00000000   12.00000000  122.31600189   50.00000000
   10.00000000   12.00000000  113.28800201   50.00000000
   10.00000000   12.00000000  102.61900330   50.00000000
   10.00000000   12.00000000  130.44500732   50.00000000
   10.00000000   12.00000000  164.31199646   50.00000000
   10.00000000   12.00000000   -1.00000000   50.00000000
   10.00000000   12.00000000  150.74000549   50.00000000
   10.00000000   12.00000000  130.09100342   50.00000000
   10.00000000   12.00000000  126.33200073   50.00000000
   10.00000000   12.00000000  157.78100586   50.00000000
   10.00000000   12.00000000  101.29199982   50.00000000
   10.00000000   12.00000000   85.70500183   50.00000000
   10.00000000   12.00000000   85.50260162   50.00000000
   10.00000000   12.00000000   84.20809937   50.00000000
   10.00000000   12.00000000   83.61309814   50.00000000
   10.00000000   12.00000000   86.55159760   50.00000000
   10.00000000   12.00000000   80.06559753   50.00000000
   10.00000000   12.00000000   82.57379913   50.00000000
   10.00000000   12.00000000   83.69730377   50.00000000
   10.00000000   12.00000000   79.82089996   50.00000000
   10.00000000   12.00000000   82.17929840   50.00000000
   10.00000000   12.00000000   83.10959625   50.00000000
   10.00000000   12.00000000   80.38619995   50.00000000
   10.00000000   12.00000000   80.58200073   50.00000000
   10.00000000   12.00000000   82.12300110   50.00000000
   10.00000000   12.00000000   82.62889862   50.00000000
   10.00000000   12.00000000   83.57230377   50.00000000
   10.00000000   12.00000000   84.31700134   50.00000000
   10.00000000   12.00000000   81.29769897   50.00000000
   10.00000000   12.00000000   83.25530243   50.00000000
   10.00000000   12.00000000   86.73490143   50.00000000
   10.00000000   12.00000000   83.80410004   50.00000000
   10.00000000   12.00000000   79.88649750   50.00000000
   10.00000000   12.00000000   83.45349884   50.00000000
   10.00000000   12.00000000   85.70480347   50.00000000
   10.00000000   12.00000000   80.51599884   50.00000000
   10.00000000   12.00000000   82.10749817   50.00000000
   10.00000000   12.00000000   79.49299622   50.00000000
   10.00000000   12.00000000   79.36190033   50.00000000
   10.00000000   12.00000000   81.65750122   50.00000000
   10.00000000   12.00000000   83.78250122   50.00000000
   10.00000000   12.00000000   86.34329987   50.00000000
   10.00000000   12.00000000   81.79799652   50.00000000
   10.00000000   12.00000000   81.92800140   50.00000000
   10.00000000   12.00000000   81.01349640   50.00000000
   10.00000000   12.00000000   81.55149841   50.00000000
   10.00000000   12.00000000   82.60220337   50.00000000
   10.00000000   12.00000000   82.27719879   50.00000000
   10.00000000   12.00000000   80.41079712   50.00000000
   10.00000000   12.00000000   79.94370270   50.00000000
   10.00000000   12.00000000   77.52300262   50.00000000
   10.00000000   12.00000000   79.60220337   50.00000000
   10.00000000   12.00000000   80.24289703   50.00000000
   10.00000000   12.00000000   82.34089661   50.00000000
   10.00000000   12.00000000   78.07749939   50.00000000
   10.00000000   12.00000000   85.06549835   50.00000000
   10.00000000   12.00000000   82.10440063   50.00000000
   10.00000000   12.00000000   82.72709656   50.00000000
   10.00000000   12.00000000   81.81349945   50.00000000
   10.00000000   12.00000000   83.70549774   50.00000000
   10.00000000   12.00000000   81.85620117   50.00000000
   10.00000000   12.00000000   80.81379700   50.00000000
   10.00000000   12.00000000   85.01570129   50.00000000
   10.00000000   12.00000000   80.67539978   50.00000000
   10.00000000   12.00000000   79.18370056   50.00000000
   10.00000000   12.00000000   82.38700104   50.00000000
   10.00000000   12.00000000   78.98210144   50.00000000
   10.00000000   12.00000000   86.75109863   50.00000000
   10.00000000   12.00000000   82.29540253   50.00000000
   10.00000000   12.00000000   82.83580017   50.00000000
   10.00000000   12.00000000   80.81880188   50.00000000
   10.00000000   12.00000000   81.54609680   50.00000000
   10.00000000   12.00000000   78.56620026   50.00000000
   10.00000000   12.00000000   84.18289948   50.00000000
   10.00000000   12.00000000   83.15599823   50.00000000
   10.00000000   12.00000000   81.82949829   50.00000000
   10.00000000   12.00000000   82.60269928   50.00000000
   10.00000000   12.00000000   81.96450043   50.00000000
   10.00000000   12.00000000   79.59570313   50.00000000
   10.00000000   12.00000000   81.15429688   50.00000000
   10.00000000   12.00000000   80.72619629   50.00000000
   10.00000000   12.00000000   80.59459686   50.00000000
   10.00000000   12.00000000   79.51959991   50.00000000
   10.00000000   12.00000000   80.74120331   50.00000000
   10.00000000   12.00000000   80.88230133   50.00000000
   10.00000000   12.00000000   80.70999908   50.00000000
   10.00000000   12.00000000   79.93229675   50.00000000
   10.00000000   12.00000000   82.11779785   50.00000000
   10.00000000   12.00000000   80.59809875   50.00000000
   10.00000000   12.00000000   81.34349823   50.00000000
   10.00000000   12.00000000   84.32939911   50.00000000
   10.00000000   12.00000000   78.99320221   50.00000000
   10.00000000   12.00000000   80.33170319   50.00000000
   10.00000000   12.00000000   78.62619781   50.00000000
   10.00000000   12.00000000   81.36299896   50.00000000
   10.00000000   12.00000000   84.30020142   50.00000000
   10.00000000   12.00000000   84.57669830   50.00000000
   10.00000000   12.00000000   83.77999878   50.00000000
   10.00000000   12.00000000   84.67340088   50.00000000
   10.00000000   12.00000000   86.56259918   50.00000000
   10.00000000   12.00000000   83.66549683   50.00000000
   10.00000000   12.00000000   92.38420105   50.00000000
   10.00000000   12.00000000   88.91369629   50.00000000
   10.00000000   12.00000000   94.00119781   50.00000000
   10.00000000   12.00000000   87.43879700   50.00000000
   10.00000000   12.00000000   82.89189911   50.00000000
   10.00000000   12.00000000   87.04660034   50.00000000
   10.00000000   12.00000000   88.92819977   50.00000000
   10.00000000   12.00000000   89.24700165   50.00000000
   10.00000000   12.00000000   90.73539734   50.00000000
   10.00000000   12.00000000   96.24590302   50.00000000
   10.00000000   12.00000000   94.83290100   50.00000000
   10.00000000   12.00000000   99.21520233   50.00000000
   10.00000000   12.00000000   97.28859711   50.00000000
   10.00000000   12.00000000  104.01000214   50.00000000
   10.00000000   12.00000000  101.08999634   50.00000000
   10.00000000   12.00000000  104.81199646   50.00000000
   10.00000000   12.00000000  101.14900208   50.00000000
   10.00000000   12.00000000   89.44830322   50.00000000
   10.00000000   12.00000000   97.64510345   50.00000000
   10.00000000   12.00000000   91.87460327   50.00000000
   10.00000000   12.00000000   91.84269714   50.00000000
   10.00000000   12.00000000  107.91400146   50.00000000
   10.00000000   12.00000000  109.64800262   50.00000000
   10.00000000   12.00000000  101.34400177   50.00000000
   10.00000000   12.00000000  101.14800262   50.00000000
   10.00000000   12.00000000   92.84069824   50.00000000
   10.00000000   12.00000000   86.68180084   50.00000000
   10.00000000   12.00000000   92.64309692   50.00000000
   10.00000000   12.00000000   89.63749695   50.00000000
   10.00000000   12.00000000   91.83570099   50.00000000
   10.00000000   12.00000000   99.64820099   50.00000000
   10.00000000   12.00000000   95.56289673   50.00000000
   10.00000000   12.00000000   95.85500336   50.00000000
   10.00000000   12.00000000   85.91510010   50.00000000
   10.00000000   12.00000000   85.14510345   50.00000000
   10.00000000   12.00000000   88.67759705   50.00000000
   10.00000000   12.00000000   84.55300140   50.00000000
   10.00000000   12.00000000   89.38680267   50.00000000
   10.00000000   12.00000000   92.67749786   50.00000000
   10.00000000   12.00000000   91.49749756   50.00000000
   10.00000000   12.00000000   93.05850220   50.00000000
   10.00000000   12.00000000   94.12180328   50.00000000
   10.00000000   12.00000000   94.00489807   50.00000000
   10.00000000   12.00000000   85.64040375   50.00000000
   10.00000000   12.00000000   88.92900085   50.00000000
   10.00000000   12.00000000   83.11170197   50.00000000
   10.00000000   12.00000000   94.17960358   50.00000000
   10.00000000   12.00000000   93.34110260   50.00000000
   10.00000000   12.00000000   86.87870026   50.00000000
   10.00000000   12.00000000   90.73380280   50.00000000
   10.00000000   12.00000000   87.51660156   50.00000000
   10.00000000   12.00000000   88.74320221   50.00000000
   10.00000000   12.00000000   85.50890350   50.00000000
   10.00000000   12.00000000   86.72049713   50.00000000
   10.00000000   12.00000000  108.55799866   50.00000000
   10.00000000   12.00000000  114.75399780   50.00000000
   10.00000000   12.00000000  106.92500305   50.00000000
   10.00000000   12.00000000  124.46199799   50.00000000
   10.00000000   12.00000000  207.44299316   50.00000000
   10.00000000   12.00000000   -1.00000000   50.00000000
   10.00000000   12.00000000   -1.00000000   50.00000000
   10.00000000   12.00000000   -1.00000000   50.00000000
   10.00000000   12.00000000   -1.00000000   50.00000000
   10.00000000   12.00000000   -1.00000000   50.00000000
   10.00000000   12.00000000   -1.00000000   50.00000000
   10.00000000   12.00000000  134.03500366   50.00000000
   10.00000000   12.00000000  188.86399841   50.00000000
   10.00000000   12.00000000  129.98800659   50.00000000
   10.00000000   12.00000000  157.41999817   50.00000000
   10.00000000   12.00000000   -1.00000000   50.00000000
   10.00000000   12.00000000   -1.00000000   50.00000000
   10.00000000   12.00000000   -1.00000000   50.00000000
   10.00000000   12.00000000   -1.00000000   50.00000000
   10.00000000   12.00000000   -1.00000000   50.00000000
   10.00000000   12.00000000   -1.00000000   50.00000000
   10.00000000   12.00000000   -1.00000000   50.00000000
   10.00000000   13.00000000   -1.00000000   50.00000000
   10.00000000   13.00000000  199.39300537   50.00000000
   10.00000000   13.00000000  129.08099365   50.00000000
   10.00000000   13.00000000   97.18250275   50.00000000
   10.00000000   13.00000000   89.55069733   50.00000000
   10.00000000   13.00000000   91.50160217   50.00000000
   10.00000000   13.00000000   87.73179626   50.00000000
   10.00000000   13.00000000   84.09190369   50.00000000
   10.00000000   13.00000000   89.73040009   50.00000000
   10.00000000   13.00000000   89.22820282   50.00000000
   10.00000000   13.00000000   82.77439880   50.00000000
   10.00000000   13.00000000   84.12930298   50.00000000
   10.00000000   13.00000000   81.15650177   50.00000000
   10.00000000   13.00000000   80.99720001   50.00000000
   10.00000000   13.00000000   84.28820038   50.00000000
   10.00000000   13.00000000   80.02729797   50.00000000
   10.00000000   13.00000000   80.97489929   50.00000000
   10.00000000   13.00000000   89.52799988   50.00000000
   10.00000000   13.00000000   82.57199860   50.00000000
   10.00000000   13.00000000   81.71209717   50.00000000
   10.00000000   13.00000000   90.77429962   50.00000000
   10.00000000   13.00000000   92.04969788   50.00000000
   10.00000000   13.00000000   90.97910309   50.00000000
   10.00000000   13.00000000  125.81600189   50.00000000
   10.00000000   13.00000000  109.23400116   50.00000000
   10.00000000   13.00000000   94.83940125   50.00000000
   10.00000000   13.00000000   91.90399933   50.00000000
   10.00000000   13.00000000   80.50550079   50.00000000
   10.00000000   13.00000000   85.26229858   50.00000000
   10.00000000   13.00000000   79.20629883   50.00000000
   10.00000000   13.00000000   84.93869781   50.00000000
   10.00000000   13.00000000   92.83000183   50.00000000
   10.00000000   13.00000000   92.33730316   50.00000000
   10.00000000   13.00000000  110.70300293   50.00000000
   10.00000000   13.00000000  105.80999756   50.00000000
   10.00000000   13.00000000   99.15160370   50.00000000
   10.00000000   13.00000000   90.31179810   50.00000000
   10.00000000   13.00000000   94.05670166   50.00000000
   10.00000000   13.00000000   90.39279938   50.00000000
   10.00000000   13.00000000   90.13819885   50.00000000
   10.00000000   13.00000000   92.07109833   50.00000000
   10.00000000   13.00000000   84.86830139   50.00000000
   10.00000000   13.00000000   84.87129974   50.00000000
   10.00000000   13.00000000   97.84899902   50.00000000
   10.00000000   13.00000000   89.69170380   50.00000000
   10.00000000   13.00000000  119.09799957   50.00000000
   10.00000000   13.00000000   87.41500092   50.00000000
   10.00000000   13.00000000  112.28800201   50.00000000
   10.00000000   13.00000000   99.61540222   50.00000000
   10.00000000   13.00000000   91.15820313   50.00000000
   10.00000000   13.00000000   97.47689819   50.00000000
   10.00000000   13.00000000   88.99980164   50.00000000
   10.00000000   13.00000000   89.60859680   50.00000000
   10.00000000   13.00000000   95.13649750   50.00000000
   10.00000000   13.00000000   95.31860352   50.00000000
   10.00000000   13.00000000  104.94100189   50.00000000
   10.00000000   13.00000000  128.06500244   50.00000000
   10.00000000   13.00000000   -1.00000000   50.00000000
   10.00000000   13.00000000  142.28900146   50.00000000
   10.00000000   13.00000000  148.08900452   50.00000000
   10.00000000   13.00000000  128.37699890   50.00000000
   10.00000000   13.00000000   95.77380371   50.00000000
   10.00000000   13.00000000   96.27290344   50.00000000
   10.00000000   13.00000000  130.54499817   50.00000000
   10.00000000   13.00000000   88.98220062   50.00000000
   10.00000000   13.00000000   86.29640198   50.00000000
   10.00000000   13.00000000   84.07759857   50.00000000
   10.00000000   13.00000000   84.40959930   50.00000000
   10.00000000   13.00000000   84.15660095   50.00000000
   10.00000000   13.00000000   81.87030029   50.00000000
   10.00000000   13.00000000   81.62100220   50.00000000
   10.00000000   13.00000000   79.39600372   50.00000000
   10.00000000   13.00000000   80.53589630   50.00000000
   10.00000000   13.00000000   79.26290131   50.00000000
   10.00000000   13.00000000   82.60099792   50.00000000
   10.00000000   13.00000000   77.98930359   50.00000000
   10.00000000   13.00000000   84.83000183   50.00000000
   10.00000000   13.00000000   81.11479950   50.00000000
   10.00000000   13.00000000   80.76969910   50.00000000
   10.00000000   13.00000000   82.45410156   50.00000000
   10.00000000   13.00000000   85.05740356   50.00000000
   10.00000000   13.00000000   80.29959869   50.00000000
   10.00000000   13.00000000   79.57399750   50.00000000
   10.00000000   13.00000000   80.59089661   50.00000000
   10.00000000   13.00000000   84.78220367   50.00000000
   10.00000000   13.00000000   84.13529968   50.00000000
   10.00000000   13.00000000   81.48549652   50.00000000
   10.00000000   13.00000000   80.83300018   50.00000000
   10.00000000   13.00000000   81.35759735   50.00000000
   10.00000000   13.00000000   81.94999695   50.00000000
   10.00000000   13.00000000   83.90969849   50.00000000
   10.00000000   13.00000000   83.12020111   50.00000000
   10.00000000   13.00000000   80.13200378   50.00000000
   10.00000000   13.00000000   81.72039795   50.00000000
   10.00000000   13.00000000   80.63980103   50.00000000
   10.00000000   13.00000000   80.79630280   50.00000000
   10.00000000   13.00000000   82.41230011   50.00000000
   10.00000000   13.00000000   75.41449738   50.00000000
   10.00000000   13.00000000   79.02490234   50.00000000
   10.00000000   13.00000000   82.12409973   50.00000000
   10.00000000   13.00000000   76.26319885   50.00000000
   10.00000000   13.00000000   81.50430298   50.00000000
   10.00000000   13.00000000   81.69730377   50.00000000
   10.00000000   13.00000000   79.33270264   50.00000000
   10.00000000   13.00000000   81.79380035   50.00000000
   10.00000000   13.00000000   81.33010101   50.00000000
   10.00000000   13.00000000   87.32830048   50.00000000
   10.00000000   13.00000000   81.32499695   50.00000000
   10.00000000   13.00000000   82.01319885   50.00000000
   10.00000000   13.00000000   81.30670166   50.00000000
   10.00000000   13.00000000   82.37030029   50.00000000
   10.00000000   13.00000000   81.89689636   50.00000000
   10.00000000   13.00000000   81.38230133   50.00000000
   10.00000000   13.00000000   78.64150238   50.00000000
   10.00000000   13.00000000   77.02799988   50.00000000
   10.00000000   13.00000000   82.83750153   50.00000000
   10.00000000   13.00000000   79.42590332   50.00000000
   10.00000000   13.00000000   80.22769928   50.00000000
   10.00000000   13.00000000   83.94730377   50.00000000
   10.00000000   13.00000000   84.84760284   50.00000000
   10.00000000   13.00000000   83.60330200   50.00000000
   10.00000000   13.00000000   83.23020172   50.00000000
   10.00000000   13.00000000   84.59020233   50.00000000
   10.00000000   13.00000000   86.43830109   50.00000000
   10.00000000   13.00000000   82.98339844   50.00000000
   10.00000000   13.00000000   84.01519775   50.00000000
   10.00000000   13.00000000   80.43180084   50.00000000
   10.00000000   13.00000000   81.17079926   50.00000000
   10.00000000   13.00000000   84.25810242   50.00000000
   10.00000000   13.00000000   78.39800262   50.00000000
   10.00000000   13.00000000   79.45030212   50.00000000
   10.00000000   13.00000000   78.83830261   50.00000000
   10.00000000   13.00000000   76.73570251   50.00000000
   10.00000000   13.00000000   83.66979980   50.00000000
   10.00000000   13.00000000   81.58380127   50.00000000
   10.00000000   13.00000000   79.50830078   50.00000000
   10.00000000   13.00000000   82.63999939   50.00000000
   10.00000000   13.00000000   80.28810120   50.00000000
   10.00000000   13.00000000   82.95159912   50.00000000
   10.00000000   13.00000000   79.03759766   50.00000000
   10.00000000   13.00000000   80.08159637   50.00000000
   10.00000000   13.00000000   80.01149750   50.00000000
   10.00000000   13.00000000   81.42289734   50.00000000
   10.00000000   13.00000000   83.32540131   50.00000000
   10.00000000   13.00000000   86.90360260   50.00000000
   10.00000000   13.00000000   83.24849701   50.00000000
   10.00000000   13.00000000   84.86689758   50.00000000
   10.00000000   13.00000000   80.80419922   50.00000000
   10.00000000   13.00000000   81.60639954   50.00000000
   10.00000000   13.00000000   80.03749847   50.00000000
   10.00000000   13.00000000   81.11270142   50.00000000
   10.00000000   13.00000000   81.24970245   50.00000000
   10.00000000   13.00000000   82.25489807   50.00000000
   10.00000000   13.00000000   83.94650269   50.00000000
   10.00000000   13.00000000   88.14350128   50.00000000
   10.00000000   13.00000000   85.35569763   50.00000000
   10.00000000   13.00000000   85.42739868   50.00000000
   10.00000000   13.00000000   85.77899933   50.00000000
   10.00000000   13.00000000   78.10790253   50.00000000
   10.00000000   13.00000000   88.08139801   50.00000000
   10.00000000   13.00000000   85.16999817   50.00000000
   10.00000000   13.00000000   87.16979980   50.00000000
   10.00000000   13.00000000   91.52860260   50.00000000
   10.00000000   13.00000000   87.07830048   50.00000000
   10.00000000   13.00000000   83.92669678   50.00000000
   10.00000000   13.00000000   83.00930023   50.00000000
   10.00000000   13.00000000   88.28620148   50.00000000
   10.00000000   13.00000000   82.98650360   50.00000000
   10.00000000   13.00000000   76.77369690   50.00000000
   10.00000000   13.00000000   75.71440125   50.00000000
   10.00000000   13.00000000   79.50140381   50.00000000
   10.00000000   13.00000000   77.31020355   50.00000000
   10.00000000   13.00000000   86.81500244   50.00000000
   10.00000000   13.00000000   76.37079620   50.00000000
   10.00000000   13.00000000   80.65889740   50.00000000
   10.00000000   13.00000000   83.52960205   50.00000000
   10.00000000   13.00000000   83.01480103   50.00000000
   10.00000000   13.00000000   81.94270325   50.00000000
   10.00000000   13.00000000   78.55359650   50.00000000
   10.00000000   13.00000000   86.64510345   50.00000000
   10.00000000   13.00000000   80.43560028   50.00000000
   10.00000000   13.00000000   79.20379639   50.00000000
   10.00000000   13.00000000   82.75050354   50.00000000
   10.00000000   13.00000000   83.43699646   50.00000000
   10.00000000   13.00000000   82.00489807   50.00000000
   10.00000000   13.00000000   91.35510254   50.00000000
   10.00000000   13.00000000   98.26940155   50.00000000
   10.00000000   13.00000000  105.50499725   50.00000000
   10.00000000   13.00000000   91.29540253   50.00000000
   10.00000000   13.00000000   90.86160278   50.00000000
   10.00000000   13.00000000   85.41809845   50.00000000
   10.00000000   13.00000000  102.68499756   50.00000000
   10.00000000   13.00000000   87.04499817   50.00000000
   10.00000000   13.00000000   88.61699677   50.00000000
   10.00000000   13.00000000   82.22489929   50.00000000
   10.00000000   13.00000000   81.55509949   50.00000000
   10.00000000   13.00000000   80.90899658   50.00000000
   10.00000000   13.00000000   79.01560211   50.00000000
   10.00000000   13.00000000   84.43070221   50.00000000
   10.00000000   13.00000000   80.44589996   50.00000000
   10.00000000   13.00000000   84.84369659   50.00000000
   10.00000000   13.00000000   86.98840332   50.00000000
   10.00000000   13.00000000   89.83519745   50.00000000
   10.00000000   13.00000000   95.66619873   50.00000000
   10.00000000   13.00000000   96.37570190   50.00000000
   10.00000000   13.00000000  115.93299866   50.00000000
   10.00000000   13.00000000  189.08700562   50.00000000
   10.00000000   13.00000000  211.13800049   50.00000000
   10.00000000   13.00000000  167.41200256   50.00000000
   10.00000000   13.00000000   -1.00000000   50.00000000
   10.00000000   13.00000000  229.64999390   50.00000000
   10.00000000   13.00000000  101.97699738   50.00000000
   10.00000000   13.00000000   -1.00000000   50.00000000
   10.00000000   13.00000000   -1.00000000   50.00000000
   10.00000000   13.00000000   -1.00000000   50.00000000
   10.00000000   13.00000000   -1.00000000   50.00000000
   10.00000000   13.00000000  165.39799500   50.00000000
   10.00000000   13.00000000   -1.00000000   50.00000000
   10.00000000   13.00000000   -1.00000000   50.00000000
   10.00000000   13.00000000   -1.00000000   50.00000000
   10.00000000   13.00000000   -1.00000000   50.00000000
   10.00000000   13.00000000   -1.00000000   50.00000000
   10.00000000   13.00000000   -1.00000000   50.00000000
   10.00000000   13.00000000   -1.00000000   50.00000000
   10.00000000   13.00000000          -NaN   50.00000000
   10.00000000   13.00000000   -1.00000000   50.00000000
   10.00000000   13.00000000   -1.00000000   50.00000000
   10.00000000   13.00000000   -1.00000000   50.00000000
   10.00000000   13.00000000   -1.00000000   50.00000000
   10.00000000   13.00000000   -1.00000000   50.00000000
   10.00000000   13.00000000   -1.00000000   50.00000000
   10.00000000   13.00000000   -1.00000000   50.00000000
   10.00000000   13.00000000   -1.00000000   50.00000000
   10.00000000   13.00000000   -1.00000000   50.00000000
   10.00000000   13.00000000   -1.00000000   50.00000000
   10.00000000   13.00000000   -1.00000000   50.00000000
   10.00000000   13.00000000   -1.00000000   50.00000000
   10.00000000   13.00000000   -1.00000000   50.00000000
   10.00000000   13.00000000   -1.00000000   50.00000000
   10.00000000   13.00000000   -1.00000000   50.00000000
   10.00000000   13.00000000   -1.00000000   50.00000000
   10.00000000   13.00000000   -1.00000000   50.00000000
   10.00000000   13.00000000   -1.00000000   50.00000000
   10.00000000   13.00000000   -1.00000000   50.00000000
   10.00000000   13.00000000   -1.00000000   50.00000000
   10.00000000   13.00000000   -1.00000000   50.00000000
   10.00000000   13.00000000   -1.00000000   50.00000000
   10.00000000   13.00000000   -1.00000000   50.00000000
   10.00000000   13.00000000   -1.00000000   50.00000000
   10.00000000   13.00000000   -1.00000000   50.00000000
   10.00000000   13.00000000   -1.00000000   50.00000000
   10.00000000   13.00000000   -1.00000000   50.00000000
   10.00000000   13.00000000   -1.00000000   50.00000000
   10.00000000   13.00000000   -1.00000000   50.00000000
   10.00000000   13.00000000   -1.00000000   50.00000000
   10.00000000   13.00000000   -1.00000000   50.00000000
   10.00000000   13.00000000   -1.00000000   50.00000000
   10.00000000   13.00000000   -1.00000000   50.00000000
   10.00000000   13.00000000   -1.00000000   50.00000000
   10.00000000   13.00000000   -1.00000000   50.00000000
   10.00000000   13.00000000  134.59100342   50.00000000
   10.00000000   13.00000000  136.07800293   50.00000000
   10.00000000   13.00000000   -1.00000000   50.00000000
   10.00000000   13.00000000   -1.00000000   50.00000000
   10.00000000   13.00000000   -1.00000000   50.00000000
   10.00000000   13.00000000   -1.00000000   50.00000000
   10.00000000   13.00000000   -1.00000000   50.00000000
   10.00000000   13.00000000   -1.00000000   50.00000000
   10.00000000   13.00000000   -1.00000000   50.00000000
   10.00000000   13.00000000   -1.00000000   50.00000000
   10.00000000   13.00000000   -1.00000000   50.00000000
   10.00000000   13.00000000   -1.00000000   50.00000000
   10.00000000   13.00000000   -1.00000000   50.00000000
   10.00000000   13.00000000   -1.00000000   50.00000000
   10.00000000   13.00000000   -1.00000000   50.00000000
   10.00000000   13.00000000   -1.00000000   50.00000000
   10.00000000   13.00000000   -1.00000000   50.00000000
   10.00000000   13.00000000   -1.00000000   50.00000000
   10.00000000   13.00000000   -1.00000000   50.00000000
   10.00000000   13.00000000   -1.00000000   50.00000000
   10.00000000   13.00000000   -1.00000000   50.00000000
   10.00000000   13.00000000   -1.00000000   50.00000000
   10.00000000   13.00000000   -1.00000000   50.00000000
   10.00000000   13.00000000   -1.00000000   50.00000000
   10.00000000   13.00000000   -1.00000000   50.00000000
   10.00000000   13.00000000   -1.00000000   50.00000000
   10.00000000   13.00000000   -1.00000000   50.00000000
   10.00000000   13.00000000   95.69419861   50.00000000
   10.00000000   13.00000000   95.35150146   50.00000000
   10.00000000   13.00000000  195.48800659   50.00000000
   10.00000000   13.00000000   94.64279938   50.00000000
   10.00000000   13.00000000   92.83029938   50.00000000
   10.00000000   13.00000000   95.35620117   50.00000000
   10.00000000   13.00000000   96.91989899   50.00000000
   10.00000000   13.00000000   96.35970306   50.00000000
   10.00000000   13.00000000   94.90509796   50.00000000
   10.00000000   13.00000000   99.58419800   50.00000000
   10.00000000   13.00000000  118.91999817   50.00000000
   10.00000000   13.00000000  116.64800262   50.00000000
   10.00000000   13.00000000   -1.00000000   50.00000000
   10.00000000   13.00000000   -1.00000000   50.00000000
   10.00000000   13.00000000   -1.00000000   50.00000000
   10.00000000   13.00000000   -1.00000000   50.00000000
   10.00000000   13.00000000   -1.00000000   50.00000000
   10.00000000   13.00000000   -1.00000000   50.00000000
   10.00000000   13.00000000  106.27500153   50.00000000
   10.00000000   13.00000000   -1.00000000   50.00000000
   10.00000000   13.00000000  112.07399750   50.00000000
   10.00000000   13.00000000   87.52220154   50.00000000
   10.00000000   13.00000000   88.16149902   50.00000000
   10.00000000   13.00000000   83.86239624   50.00000000
   10.00000000   13.00000000  116.54100037   50.00000000
   10.00000000   13.00000000  174.72300720   50.00000000
   10.00000000   13.00000000   -1.00000000   50.00000000
   10.00000000   13.00000000   -1.00000000   50.00000000
   10.00000000   13.00000000  102.29599762   50.00000000
   10.00000000   13.00000000   89.46520233   50.00000000
   10.00000000   13.00000000   88.17310333   50.00000000
   10.00000000   13.00000000   88.09739685   50.00000000
   10.00000000   13.00000000   87.33129883   50.00000000
   10.00000000   13.00000000   84.78320313   50.00000000
   10.00000000   13.00000000   92.14260101   50.00000000
   10.00000000   13.00000000   85.62020111   50.00000000
   10.00000000   13.00000000   85.42009735   50.00000000
   10.00000000   13.00000000   82.22509766   50.00000000
   10.00000000   13.00000000   88.02510071   50.00000000
   10.00000000   13.00000000   83.93489838   50.00000000
   10.00000000   13.00000000   88.47450256   50.00000000
   10.00000000   13.00000000   81.33789825   50.00000000
   10.00000000   13.00000000   80.50250244   50.00000000
   10.00000000   13.00000000   89.68849945   50.00000000
   10.00000000   13.00000000  122.04799652   50.00000000
   10.00000000   13.00000000  149.96699524   50.00000000
   10.00000000   13.00000000  103.12100220   50.00000000
   10.00000000   13.00000000  123.04000092   50.00000000
   10.00000000   13.00000000  242.03500366   50.00000000
   10.00000000   13.00000000   -1.00000000   50.00000000
   10.00000000   13.00000000   -1.00000000   50.00000000
   10.00000000   13.00000000   -1.00000000   50.00000000
   10.00000000   14.00000000   -1.00000000   50.00000000
   10.00000000   14.00000000  156.61599731   50.00000000
   10.00000000   14.00000000  100.28399658   50.00000000
   10.00000000   14.00000000   97.41380310   50.00000000
   10.00000000   14.00000000   96.27780151   50.00000000
   10.00000000   14.00000000  135.16999817   50.00000000
   10.00000000   14.00000000  107.80899811   50.00000000
   10.00000000   14.00000000  136.44599915   50.00000000
   10.00000000   14.00000000  113.30699921   50.00000000
   10.00000000   14.00000000  147.24099731   50.00000000
   10.00000000   14.00000000  204.80000305   50.00000000
   10.00000000   14.00000000   -1.00000000   50.00000000
   10.00000000   14.00000000   -1.00000000   50.00000000
   10.00000000   14.00000000   -1.00000000   50.00000000
   10.00000000   14.00000000   -1.00000000   50.00000000
   10.00000000   14.00000000   -1.00000000   50.00000000
   10.00000000   14.00000000   -1.00000000   50.00000000
   10.00000000   14.00000000   -1.00000000   50.00000000
   10.00000000   14.00000000   -1.00000000   50.00000000
   10.00000000   14.00000000   -1.00000000   50.00000000
   10.00000000   14.00000000   -1.00000000   50.00000000
   10.00000000   14.00000000   -1.00000000   50.00000000
   10.00000000   14.00000000   -1.00000000   50.00000000
   10.00000000   14.00000000   -1.00000000   50.00000000
   10.00000000   14.00000000   -1.00000000   50.00000000
   10.00000000   14.00000000   -1.00000000   50.00000000
   10.00000000   14.00000000   -1.00000000   50.00000000
   10.00000000   14.00000000   -1.00000000   50.00000000
   10.00000000   14.00000000   -1.00000000   50.00000000
   10.00000000   14.00000000   -1.00000000   50.00000000
   10.00000000   14.00000000   -1.00000000   50.00000000
   10.00000000   14.00000000   -1.00000000   50.00000000
   10.00000000   14.00000000   -1.00000000   50.00000000
   10.00000000   14.00000000   -1.00000000   50.00000000
   10.00000000   14.00000000   -1.00000000   50.00000000
   10.00000000   14.00000000   -1.00000000   50.00000000
   10.00000000   14.00000000   -1.00000000   50.00000000
   10.00000000   14.00000000   -1.00000000   50.00000000
   10.00000000   14.00000000   -1.00000000   50.00000000
   10.00000000   14.00000000   -1.00000000   50.00000000
   10.00000000   14.00000000   84.56040192   50.00000000
   10.00000000   14.00000000   83.00769806   50.00000000
   10.00000000   14.00000000   81.85070038   50.00000000
   10.00000000   14.00000000   85.84529877   50.00000000
   10.00000000   14.00000000   89.24960327   50.00000000
   10.00000000   14.00000000   82.43669891   50.00000000
   10.00000000   14.00000000   87.65460205   50.00000000
   10.00000000   14.00000000   87.79039764   50.00000000
   10.00000000   14.00000000   86.93309784   50.00000000
   10.00000000   14.00000000   85.07460022   50.00000000
   10.00000000   14.00000000   86.99019623   50.00000000
   10.00000000   14.00000000   84.29969788   50.00000000
   10.00000000   14.00000000   84.88059998   50.00000000
   10.00000000   14.00000000   86.72350311   50.00000000
   10.00000000   14.00000000   85.65589905   50.00000000
   10.00000000   14.00000000   90.27140045   50.00000000
   10.00000000   14.00000000  116.37200165   50.00000000
   10.00000000   14.00000000   -1.00000000   50.00000000
   10.00000000   14.00000000   -1.00000000   50.00000000
   10.00000000   14.00000000   -1.00000000   50.00000000
   10.00000000   14.00000000   -1.00000000   50.00000000
   10.00000000   14.00000000   -1.00000000   50.00000000
   10.00000000   14.00000000   -1.00000000   50.00000000
   10.00000000   14.00000000   -1.00000000   50.00000000
   10.00000000   14.00000000   -1.00000000   50.00000000
   10.00000000   14.00000000   -1.00000000   50.00000000
   10.00000000   14.00000000          -NaN   50.00000000
   10.00000000   14.00000000   -1.00000000   50.00000000
   10.00000000   14.00000000  136.49699402   50.00000000
   10.00000000   14.00000000  109.71800232   50.00000000
   10.00000000   14.00000000  100.81600189   50.00000000
   10.00000000   14.00000000   89.24980164   50.00000000
   10.00000000   14.00000000   89.93329620   50.00000000
   10.00000000   14.00000000   90.37590027   50.00000000
   10.00000000   14.00000000   92.43260193   50.00000000
   10.00000000   14.00000000   90.37719727   50.00000000
   10.00000000   14.00000000   82.06729889   50.00000000
   10.00000000   14.00000000   83.73320007   50.00000000
   10.00000000   14.00000000  100.54699707   50.00000000
   10.00000000   14.00000000  114.10500336   50.00000000
   10.00000000   14.00000000   89.50830078   50.00000000
   10.00000000   14.00000000  202.22700500   50.00000000
   10.00000000   14.00000000  188.61199951   50.00000000
   10.00000000   14.00000000  183.40899658   50.00000000
   10.00000000   14.00000000  236.79499817   50.00000000
   10.00000000   14.00000000  184.11399841   50.00000000
   10.00000000   14.00000000  134.01800537   50.00000000
   10.00000000   14.00000000   99.19940186   50.00000000
   10.00000000   14.00000000   89.56670380   50.00000000
   10.00000000   14.00000000   89.78079987   50.00000000
   10.00000000   14.00000000   82.45279694   50.00000000
   10.00000000   14.00000000   78.64980316   50.00000000
   10.00000000   14.00000000   84.53489685   50.00000000
   10.00000000   14.00000000   91.07369995   50.00000000
   10.00000000   14.00000000   85.29869843   50.00000000
   10.00000000   14.00000000   86.04389954   50.00000000
   10.00000000   14.00000000   84.32589722   50.00000000
   10.00000000   14.00000000   88.76239777   50.00000000
   10.00000000   14.00000000   87.64589691   50.00000000
   10.00000000   14.00000000   90.41349792   50.00000000
   10.00000000   14.00000000   88.77310181   50.00000000
   10.00000000   14.00000000   83.41010284   50.00000000
   10.00000000   14.00000000   88.33589935   50.00000000
   10.00000000   14.00000000   92.35970306   50.00000000
   10.00000000   14.00000000   89.43879700   50.00000000
   10.00000000   14.00000000   90.99459839   50.00000000
   10.00000000   14.00000000   94.73069763   50.00000000
   10.00000000   14.00000000  117.52200317   50.00000000
   10.00000000   14.00000000   -1.00000000   50.00000000
   10.00000000   14.00000000   63.34600067   50.00000000
   10.00000000   14.00000000  209.08999634   50.00000000
   10.00000000   14.00000000  153.45199585   50.00000000
   10.00000000   14.00000000  154.04800415   50.00000000
   10.00000000   14.00000000   93.71160126   50.00000000
   10.00000000   14.00000000   84.42310333   50.00000000
   10.00000000   14.00000000   94.88600159   50.00000000
   10.00000000   14.00000000   91.08760071   50.00000000
   10.00000000   14.00000000   90.70349884   50.00000000
   10.00000000   14.00000000   92.30879974   50.00000000
   10.00000000   14.00000000   86.01090240   50.00000000
   10.00000000   14.00000000   91.32099915   50.00000000
   10.00000000   14.00000000   83.48139954   50.00000000
   10.00000000   14.00000000   82.39910126   50.00000000
   10.00000000   14.00000000   82.06359863   50.00000000
   10.00000000   14.00000000   87.62000275   50.00000000
   10.00000000   14.00000000   83.22229767   50.00000000
   10.00000000   14.00000000   91.66809845   50.00000000
   10.00000000   14.00000000   90.41850281   50.00000000
   10.00000000   14.00000000   96.65699768   50.00000000
   10.00000000   14.00000000   95.77330017   50.00000000
   10.00000000   14.00000000   90.30840302   50.00000000
   10.00000000   14.00000000   81.33219910   50.00000000
   10.00000000   14.00000000   86.84700012   50.00000000
   10.00000000   14.00000000   87.04850006   50.00000000
   10.00000000   14.00000000   80.09210205   50.00000000
   10.00000000   14.00000000   80.68609619   50.00000000
   10.00000000   14.00000000   82.82900238   50.00000000
   10.00000000   14.00000000   87.23470306   50.00000000
   10.00000000   14.00000000   89.07289886   50.00000000
   10.00000000   14.00000000   83.56700134   50.00000000
   10.00000000   14.00000000   85.67410278   50.00000000
   10.00000000   14.00000000   81.68060303   50.00000000
   10.00000000   14.00000000   78.94779968   50.00000000
   10.00000000   14.00000000   84.52850342   50.00000000
   10.00000000   14.00000000   85.27860260   50.00000000
   10.00000000   14.00000000   82.90689850   50.00000000
   10.00000000   14.00000000   86.55639648   50.00000000
   10.00000000   14.00000000   81.71790314   50.00000000
   10.00000000   14.00000000   99.25579834   50.00000000
   10.00000000   14.00000000   92.67500305   50.00000000
   10.00000000   14.00000000   85.39129639   50.00000000
   10.00000000   14.00000000   82.23909760   50.00000000
   10.00000000   14.00000000   83.47419739   50.00000000
   10.00000000   14.00000000   86.17050171   50.00000000
   10.00000000   14.00000000   79.57720184   50.00000000
   10.00000000   14.00000000   82.69080353   50.00000000
   10.00000000   14.00000000   77.99050140   50.00000000
   10.00000000   14.00000000   82.69539642   50.00000000
   10.00000000   14.00000000   87.48500061   50.00000000
   10.00000000   14.00000000   87.19239807   50.00000000
   10.00000000   14.00000000   77.54560089   50.00000000
   10.00000000   14.00000000   79.54370117   50.00000000
   10.00000000   14.00000000   90.81439972   50.00000000
   10.00000000   14.00000000   80.29440308   50.00000000
   10.00000000   14.00000000   81.52040100   50.00000000
   10.00000000   14.00000000   84.05660248   50.00000000
   10.00000000   14.00000000   78.17620087   50.00000000
   10.00000000   14.00000000   84.39710236   50.00000000
   10.00000000   14.00000000   81.56120300   50.00000000
   10.00000000   14.00000000   80.71299744   50.00000000
   10.00000000   14.00000000   79.13529968   50.00000000
   10.00000000   14.00000000   78.39350128   50.00000000
   10.00000000   14.00000000   79.63960266   50.00000000
   10.00000000   14.00000000   79.67870331   50.00000000
   10.00000000   14.00000000   76.30429840   50.00000000
   10.00000000   14.00000000   79.95059967   50.00000000
   10.00000000   14.00000000   78.36090088   50.00000000
   10.00000000   14.00000000   79.64520264   50.00000000
   10.00000000   14.00000000   82.03669739   50.00000000
   10.00000000   14.00000000   77.88230133   50.00000000
   10.00000000   14.00000000   76.27459717   50.00000000
   10.00000000   14.00000000   77.91770172   50.00000000
   10.00000000   14.00000000   82.52310181   50.00000000
   10.00000000   14.00000000   83.34049988   50.00000000
   10.00000000   14.00000000   78.51979828   50.00000000
   10.00000000   14.00000000   81.59600067   50.00000000
   10.00000000   14.00000000   84.63400269   50.00000000
   10.00000000   14.00000000   83.66729736   50.00000000
   10.00000000   14.00000000   88.59490204   50.00000000
   10.00000000   14.00000000   84.70520020   50.00000000
   10.00000000   14.00000000   90.00540161   50.00000000
   10.00000000   14.00000000   85.35019684   50.00000000
   10.00000000   14.00000000   82.59329987   50.00000000
   10.00000000   14.00000000   81.27970123   50.00000000
   10.00000000   14.00000000   84.47720337   50.00000000
   10.00000000   14.00000000   81.10279846   50.00000000
   10.00000000   14.00000000   77.77760315   50.00000000
   10.00000000   14.00000000   79.64920044   50.00000000
   10.00000000   14.00000000   81.77719879   50.00000000
   10.00000000   15.00000000   75.67859650   50.00000000
   10.00000000   15.00000000   80.86949921   50.00000000
   10.00000000   15.00000000   80.67729950   50.00000000
   10.00000000   15.00000000   76.51180267   50.00000000
   10.00000000   15.00000000   83.52770233   50.00000000
   10.00000000   15.00000000   83.50009918   50.00000000
   10.00000000   15.00000000   78.98580170   50.00000000
   10.00000000   15.00000000   82.69509888   50.00000000
   10.00000000   15.00000000   84.40779877   50.00000000
   10.00000000   15.00000000   84.10880280   50.00000000
   10.00000000   15.00000000   81.76229858   50.00000000
   10.00000000   15.00000000   79.12779999   50.00000000
   10.00000000   15.00000000   81.41529846   50.00000000
   10.00000000   15.00000000   75.62129974   50.00000000
   10.00000000   15.00000000   78.25119781   50.00000000
   10.00000000   15.00000000   79.00990295   50.00000000
   10.00000000   15.00000000   83.64270020   50.00000000
   10.00000000   15.00000000   87.64389801   50.00000000
   10.00000000   15.00000000   84.34149933   50.00000000
   10.00000000   15.00000000   79.63649750   50.00000000
   10.00000000   15.00000000   97.64009857   50.00000000
   10.00000000   15.00000000  139.54499817   50.00000000
   10.00000000   15.00000000   88.91089630   50.00000000
   10.00000000   15.00000000   -1.00000000   50.00000000
   10.00000000   15.00000000   -1.00000000   50.00000000
   10.00000000   15.00000000   84.67479706   50.00000000
   10.00000000   15.00000000   89.19229889   50.00000000
   10.00000000   15.00000000   88.11299896   50.00000000
   10.00000000   15.00000000   85.87570190   50.00000000
   10.00000000   15.00000000   83.10209656   50.00000000
   10.00000000   15.00000000   85.19860077   50.00000000
   10.00000000   15.00000000  100.73999786   50.00000000
   10.00000000   15.00000000   96.65619659   50.00000000
   10.00000000   15.00000000   99.51799774   50.00000000
   10.00000000   15.00000000   98.19789886   50.00000000
   10.00000000   15.00000000   -1.00000000   50.00000000
   10.00000000   15.00000000   -1.00000000   50.00000000
   10.00000000   15.00000000   -1.00000000   50.00000000
   10.00000000   15.00000000   -1.00000000   50.00000000
   10.00000000   15.00000000   -1.00000000   50.00000000
   10.00000000   15.00000000   -1.00000000   50.00000000
   10.00000000   15.00000000  103.23000336   50.00000000
   10.00000000   15.00000000  117.39600372   50.00000000
   10.00000000   15.00000000   97.18679810   50.00000000
   10.00000000   15.00000000   92.04180145   50.00000000
   10.00000000   15.00000000   84.18800354   50.00000000
   10.00000000   15.00000000   83.64969635   50.00000000
   10.00000000   15.00000000   81.77850342   50.00000000
   10.00000000   15.00000000   86.40650177   50.00000000
   10.00000000   15.00000000   91.88300323   50.00000000
   10.00000000   15.00000000   78.90540314   50.00000000
   10.00000000   15.00000000   79.39389801   50.00000000
   10.00000000   15.00000000   77.79190063   50.00000000
   10.00000000   15.00000000   80.90859985   50.00000000
   10.00000000   15.00000000   79.03679657   50.00000000
   10.00000000   15.00000000   78.20189667   50.00000000
   10.00000000   15.00000000   78.75820160   50.00000000
   10.00000000   15.00000000   79.03769684   50.00000000
   10.00000000   15.00000000   80.91369629   50.00000000
   10.00000000   15.00000000   80.15399933   50.00000000
   10.00000000   15.00000000   80.32489777   50.00000000
   10.00000000   15.00000000   76.09660339   50.00000000
   10.00000000   15.00000000   77.80030060   50.00000000
   10.00000000   15.00000000   80.34200287   50.00000000
   10.00000000   15.00000000   75.98799896   50.00000000
   10.00000000   15.00000000   78.86560059   50.00000000
   10.00000000   15.00000000   77.94589996   50.00000000
   10.00000000   15.00000000   80.10749817   50.00000000
   10.00000000   15.00000000   80.54940033   50.00000000
   10.00000000   15.00000000   79.13050079   50.00000000
   10.00000000   15.00000000   80.06919861   50.00000000
   10.00000000   15.00000000   82.24420166   50.00000000
   10.00000000   15.00000000   76.94339752   50.00000000
   10.00000000   15.00000000   81.54250336   50.00000000
   10.00000000   15.00000000   89.31369781   50.00000000
   10.00000000   15.00000000   82.21800232   50.00000000
   10.00000000   15.00000000   83.22209930   50.00000000
   10.00000000   15.00000000   80.87539673   50.00000000
   10.00000000   15.00000000   82.55629730   50.00000000
   10.00000000   15.00000000   83.32009888   50.00000000
   10.00000000   15.00000000   82.93370056   50.00000000
   10.00000000   15.00000000   83.43009949   50.00000000
   10.00000000   15.00000000   91.94380188   50.00000000
   10.00000000   15.00000000   88.66989899   50.00000000
   10.00000000   15.00000000   91.55750275   50.00000000
   10.00000000   15.00000000  102.71900177   50.00000000
   10.00000000   15.00000000   90.99620056   50.00000000
   10.00000000   15.00000000  135.89199829   50.00000000
   10.00000000   15.00000000  106.19799805   50.00000000
   10.00000000   15.00000000  114.64399719   50.00000000
   10.00000000   15.00000000  120.01899719   50.00000000
   10.00000000   15.00000000  102.31400299   50.00000000
   10.00000000   15.00000000   97.66400146   50.00000000
   10.00000000   15.00000000   87.78939819   50.00000000
   10.00000000   15.00000000   80.99449921   50.00000000
   10.00000000   15.00000000   80.73609924   50.00000000
   10.00000000   15.00000000   81.79979706   50.00000000
   10.00000000   15.00000000   79.85820007   50.00000000
   10.00000000   15.00000000   79.28309631   50.00000000
   10.00000000   15.00000000   82.77680206   50.00000000
   10.00000000   15.00000000   87.40959930   50.00000000
   10.00000000   15.00000000   91.73459625   50.00000000
   10.00000000   15.00000000   78.53759766   50.00000000
   10.00000000   15.00000000   82.64479828   50.00000000
   10.00000000   15.00000000   85.48110199   50.00000000
   10.00000000   15.00000000   83.22070313   50.00000000
   10.00000000   15.00000000   88.88459778   50.00000000
   10.00000000   15.00000000   -1.00000000   50.00000000
   10.00000000   15.00000000   -1.00000000   50.00000000
   10.00000000   15.00000000   -1.00000000   50.00000000
   10.00000000   15.00000000   -1.00000000   50.00000000
   10.00000000   15.00000000   -1.00000000   50.00000000
   10.00000000   15.00000000   -1.00000000   50.00000000
   10.00000000   15.00000000   -1.00000000   50.00000000
   10.00000000   15.00000000   -1.00000000   50.00000000
   10.00000000   15.00000000   -1.00000000   50.00000000
   10.00000000   15.00000000   -1.00000000   50.00000000
   10.00000000   15.00000000   -1.00000000   50.00000000
   10.00000000   15.00000000   -1.00000000   50.00000000
   10.00000000   15.00000000   -1.00000000   50.00000000
   10.00000000   15.00000000   -1.00000000   50.00000000
   10.00000000   15.00000000   -1.00000000   50.00000000
   10.00000000   15.00000000   -1.00000000   50.00000000
   10.00000000   15.00000000   -1.00000000   50.00000000
   10.00000000   15.00000000   -1.00000000   50.00000000
   10.00000000   15.00000000  190.14999390   50.00000000
   10.00000000   15.00000000   -1.00000000   50.00000000
   10.00000000   15.00000000  155.41200256   50.00000000
   10.00000000   15.00000000  109.24700165   50.00000000
   10.00000000   15.00000000  105.93199921   50.00000000
   10.00000000   15.00000000  112.46399689   50.00000000
   10.00000000   15.00000000  114.51999664   50.00000000
   10.00000000   15.00000000  230.65100098   50.00000000
   10.00000000   15.00000000  109.04000092   50.00000000
   10.00000000   15.00000000   -1.00000000   50.00000000
   10.00000000   15.00000000   -1.00000000   50.00000000
   10.00000000   15.00000000   -1.00000000   50.00000000
   10.00000000   15.00000000   -1.00000000   50.00000000
   10.00000000   15.00000000   -1.00000000   50.00000000
   10.00000000   15.00000000   -1.00000000   50.00000000
   10.00000000   15.00000000   -1.00000000   50.00000000
   10.00000000   15.00000000   -1.00000000   50.00000000
   10.00000000   15.00000000   -1.00000000   50.00000000
   10.00000000   15.00000000   -1.00000000   50.00000000
   10.00000000   15.00000000   -1.00000000   50.00000000
   10.00000000   15.00000000   -1.00000000   50.00000000
   10.00000000   15.00000000   -1.00000000   50.00000000
   10.00000000   15.00000000   -1.00000000   50.00000000
   10.00000000   15.00000000   -1.00000000   50.00000000
   10.00000000   15.00000000   -1.00000000   50.00000000
   10.00000000   15.00000000   -1.00000000   50.00000000
   10.00000000   15.00000000   -1.00000000   50.00000000
   10.00000000   15.00000000   -1.00000000   50.00000000
   10.00000000   15.00000000   -1.00000000   50.00000000
   10.00000000   15.00000000   -1.00000000   50.00000000
   10.00000000   15.00000000   -1.00000000   50.00000000
   10.00000000   15.00000000   -1.00000000   50.00000000
   10.00000000   15.00000000   -1.00000000   50.00000000
   10.00000000   15.00000000   -1.00000000   50.00000000
   10.00000000   15.00000000   -1.00000000   50.00000000
   10.00000000   15.00000000   -1.00000000   50.00000000
   10.00000000   15.00000000   -1.00000000   50.00000000
   10.00000000   15.00000000   -1.00000000   50.00000000
   10.00000000   15.00000000   -1.00000000   50.00000000
   10.00000000   15.00000000   -1.00000000   50.00000000
   10.00000000   15.00000000  128.46000671   50.00000000
   10.00000000   15.00000000  131.73899841   50.00000000
   10.00000000   15.00000000  107.69000244   50.00000000
   10.00000000   15.00000000   89.90209961   50.00000000
   10.00000000   15.00000000   87.51499939   50.00000000
   10.00000000   15.00000000   89.40090179   50.00000000
   10.00000000   15.00000000   88.11920166   50.00000000
   10.00000000   15.00000000  111.37799835   50.00000000
   10.00000000   15.00000000   97.45349884   50.00000000
   10.00000000   15.00000000   98.58820343   50.00000000
   10.00000000   15.00000000   84.01380157   50.00000000
   10.00000000   15.00000000   83.95809937   50.00000000
   10.00000000   15.00000000   78.30899811   50.00000000
   10.00000000   15.00000000   80.45899963   50.00000000
   10.00000000   15.00000000   83.05539703   50.00000000
   10.00000000   15.00000000   82.14890289   50.00000000
   10.00000000   15.00000000   92.26550293   50.00000000
   10.00000000   15.00000000   78.43180084   50.00000000
   10.00000000   15.00000000   85.38169861   50.00000000
   10.00000000   15.00000000   85.75710297   50.00000000
   10.00000000   15.00000000   83.12460327   50.00000000
   10.00000000   15.00000000   77.77069855   50.00000000
   10.00000000   15.00000000   79.44999695   50.00000000
   10.00000000   15.00000000   80.11180115   50.00000000
   10.00000000   15.00000000   91.98570251   50.00000000
   10.00000000   15.00000000   76.30539703   50.00000000
   10.00000000   15.00000000   88.74089813   50.00000000
   10.00000000   15.00000000   90.19470215   50.00000000
   10.00000000   15.00000000   97.47679901   50.00000000
   10.00000000   15.00000000   79.61959839   50.00000000
   10.00000000   15.00000000   79.30760193   50.00000000
   10.00000000   15.00000000   81.42600250   50.00000000
   10.00000000   15.00000000   90.39170074   50.00000000
   10.00000000   15.00000000   87.65209961   50.00000000
   10.00000000   15.00000000   97.23049927   50.00000000
   10.00000000   15.00000000   94.12139893   50.00000000
   10.00000000   15.00000000   93.34559631   50.00000000
   10.00000000   15.00000000  120.35399628   50.00000000
   10.00000000   15.00000000  211.50700378   50.00000000
   10.00000000   15.00000000  122.16500092   50.00000000
   10.00000000   15.00000000  115.00000000   50.00000000
   10.00000000   15.00000000  101.50599670   50.00000000
   10.00000000   15.00000000  100.98100281   50.00000000
   10.00000000   15.00000000  175.12899780   50.00000000
   10.00000000   15.00000000   -1.00000000   50.00000000
   10.00000000   15.00000000   -1.00000000   50.00000000
   10.00000000   15.00000000   -1.00000000   50.00000000
   10.00000000   15.00000000   -1.00000000   50.00000000
   10.00000000   15.00000000   -1.00000000   50.00000000
   10.00000000   15.00000000   -1.00000000   50.00000000
   10.00000000   15.00000000   -1.00000000   50.00000000
   10.00000000   15.00000000   -1.00000000   50.00000000
   10.00000000   15.00000000   -1.00000000   50.00000000
   10.00000000   15.00000000   -1.00000000   50.00000000
   10.00000000   15.00000000   -1.00000000   50.00000000
   10.00000000   15.00000000   -1.00000000   50.00000000
   10.00000000   15.00000000   -1.00000000   50.00000000
   10.00000000   15.00000000   -1.00000000   50.00000000
   10.00000000   15.00000000   -1.00000000   50.00000000
   10.00000000   15.00000000   -1.00000000   50.00000000
   10.00000000   15.00000000   -1.00000000   50.00000000
   10.00000000   15.00000000   -1.00000000   50.00000000
   10.00000000   15.00000000   -1.00000000   50.00000000
   10.00000000   15.00000000   -1.00000000   50.00000000
   10.00000000   15.00000000   -1.00000000   50.00000000
   10.00000000   15.00000000   -1.00000000   50.00000000
   10.00000000   15.00000000  110.51899719   50.00000000
   10.00000000   15.00000000   98.09719849   50.00000000
   10.00000000   15.00000000   -1.00000000   50.00000000
   10.00000000   15.00000000  172.73199463   50.00000000
   10.00000000   15.00000000   -1.00000000   50.00000000
   10.00000000   15.00000000   -1.00000000   50.00000000
   10.00000000   15.00000000   -1.00000000   50.00000000
   10.00000000   15.00000000   -1.00000000   50.00000000
   10.00000000   15.00000000   -1.00000000   50.00000000
   10.00000000   15.00000000   -1.00000000   50.00000000
   10.00000000   15.00000000  123.55400085   50.00000000
   10.00000000   15.00000000   92.70010376   50.00000000
   10.00000000   15.00000000   84.98380280   50.00000000
   10.00000000   15.00000000   77.09539795   50.00000000
   10.00000000   15.00000000   77.78060150   50.00000000
   10.00000000   15.00000000   86.90329742   50.00000000
   10.00000000   15.00000000   80.94779968   50.00000000
   10.00000000   15.00000000   80.70320129   50.00000000
   10.00000000   15.00000000   78.55570221   50.00000000
   10.00000000   15.00000000   79.43329620   50.00000000
   10.00000000   15.00000000   76.08170319   50.00000000
   10.00000000   15.00000000   77.24160004   50.00000000
   10.00000000   15.00000000   77.31729889   50.00000000
   10.00000000   15.00000000   77.93579865   50.00000000
   10.00000000   15.00000000   76.17759705   50.00000000
   10.00000000   15.00000000   88.37799835   50.00000000
   10.00000000   15.00000000   82.22290039   50.00000000
   10.00000000   15.00000000   85.11109924   50.00000000
   10.00000000   15.00000000   86.25779724   50.00000000
   10.00000000   15.00000000   95.27780151   50.00000000
   10.00000000   15.00000000   95.23220062   50.00000000
   10.00000000   15.00000000   86.97350311   50.00000000
   10.00000000   15.00000000   83.73539734   50.00000000
   10.00000000   15.00000000   82.30619812   50.00000000
   10.00000000   15.00000000   77.34110260   50.00000000
   10.00000000   15.00000000   76.23760223   50.00000000
   10.00000000   15.00000000   80.75489807   50.00000000
   10.00000000   15.00000000   79.10810089   50.00000000
   10.00000000   15.00000000   77.15740204   50.00000000
   10.00000000   15.00000000   79.29470062   50.00000000
   10.00000000   15.00000000   83.17369843   50.00000000
   10.00000000   16.00000000   81.62809753   50.00000000
   10.00000000   16.00000000   87.87789917   50.00000000
   10.00000000   16.00000000   79.27539825   50.00000000
   10.00000000   16.00000000   88.17890167   50.00000000
   10.00000000   16.00000000   84.30860138   50.00000000
   10.00000000   16.00000000   79.91590118   50.00000000
   10.00000000   16.00000000   81.17990112   50.00000000
   10.00000000   16.00000000   88.06559753   50.00000000
   10.00000000   16.00000000   81.39219666   50.00000000
   10.00000000   16.00000000   80.40350342   50.00000000
   10.00000000   16.00000000   79.17320251   50.00000000
   10.00000000   16.00000000   89.70269775   50.00000000
   10.00000000   16.00000000   82.27729797   50.00000000
   10.00000000   16.00000000   86.01270294   50.00000000
   10.00000000   16.00000000   83.36949921   50.00000000
   10.00000000   16.00000000   79.69770050   50.00000000
   10.00000000   16.00000000   76.06300354   50.00000000
   10.00000000   16.00000000   78.52870178   50.00000000
   10.00000000   16.00000000   80.09529877   50.00000000
   10.00000000   16.00000000   82.87999725   50.00000000
   10.00000000   16.00000000   74.83599854   50.00000000
   10.00000000   16.00000000   74.67520142   50.00000000
   10.00000000   16.00000000   74.17269897   50.00000000
   10.00000000   16.00000000   77.51020050   50.00000000
   10.00000000   16.00000000   76.25980377   50.00000000
   10.00000000   16.00000000   76.54019928   50.00000000
   10.00000000   16.00000000   76.60839844   50.00000000
   10.00000000   16.00000000   79.74649811   50.00000000
   10.00000000   16.00000000   81.51950073   50.00000000
   10.00000000   16.00000000   81.74199677   50.00000000
   10.00000000   16.00000000   83.39499664   50.00000000
   10.00000000   16.00000000   90.65529633   50.00000000
   10.00000000   16.00000000   95.72979736   50.00000000
   10.00000000   16.00000000   99.68389893   50.00000000
   10.00000000   16.00000000  112.21600342   50.00000000
   10.00000000   16.00000000  114.47699738   50.00000000
   10.00000000   16.00000000  173.62800598   50.00000000
   10.00000000   16.00000000  178.44700623   50.00000000
   10.00000000   16.00000000   23.57019997   50.00000000
   10.00000000   16.00000000   -1.00000000   50.00000000
   10.00000000   16.00000000   -1.00000000   50.00000000
   10.00000000   16.00000000   -1.00000000   50.00000000
   10.00000000   16.00000000  156.26100159   50.00000000
   10.00000000   16.00000000  127.10399628   50.00000000
   10.00000000   16.00000000  112.05100250   50.00000000
   10.00000000   16.00000000  111.28600311   50.00000000
   10.00000000   16.00000000   93.20520020   50.00000000
   10.00000000   16.00000000   88.27580261   50.00000000
   10.00000000   16.00000000   84.21759796   50.00000000
   10.00000000   16.00000000  120.69999695   50.00000000
   10.00000000   16.00000000   -1.00000000   50.00000000
   10.00000000   16.00000000   -1.00000000   50.00000000
   10.00000000   16.00000000   -1.00000000   50.00000000
   10.00000000   16.00000000   -1.00000000   50.00000000
   10.00000000   16.00000000   -1.00000000   50.00000000
   10.00000000   16.00000000   -1.00000000   50.00000000
   10.00000000   16.00000000   -1.00000000   50.00000000
   10.00000000   16.00000000   -1.00000000   50.00000000
   10.00000000   16.00000000   -1.00000000   50.00000000
   10.00000000   16.00000000   -1.00000000   50.00000000
   10.00000000   16.00000000  137.59899902   50.00000000
   10.00000000   16.00000000  149.19900513   50.00000000
   10.00000000   16.00000000  101.78199768   50.00000000
   10.00000000   16.00000000  104.37300110   50.00000000
   10.00000000   16.00000000  112.61399841   50.00000000
   10.00000000   16.00000000   96.68409729   50.00000000
   10.00000000   16.00000000   84.60620117   50.00000000
   10.00000000   16.00000000   85.44200134   50.00000000
   10.00000000   16.00000000   85.00330353   50.00000000
   10.00000000   16.00000000   86.87969971   50.00000000
   10.00000000   16.00000000   87.50409698   50.00000000
   10.00000000   16.00000000   77.89510345   50.00000000
   10.00000000   16.00000000   85.89379883   50.00000000
   10.00000000   16.00000000   82.23049927   50.00000000
   10.00000000   16.00000000   81.70600128   50.00000000
   10.00000000   16.00000000   79.78060150   50.00000000
   10.00000000   16.00000000   78.37550354   50.00000000
   10.00000000   16.00000000   82.02760315   50.00000000
   10.00000000   16.00000000   83.69059753   50.00000000
   10.00000000   16.00000000   83.04440308   50.00000000
   10.00000000   16.00000000   88.38529968   50.00000000
   10.00000000   16.00000000   92.54060364   50.00000000
   10.00000000   16.00000000   93.44499969   50.00000000
   10.00000000   16.00000000  103.91400146   50.00000000
   10.00000000   16.00000000   93.82209778   50.00000000
   10.00000000   16.00000000   91.27950287   50.00000000
   10.00000000   16.00000000   82.04340363   50.00000000
   10.00000000   16.00000000   79.84239960   50.00000000
   10.00000000   16.00000000   87.21589661   50.00000000
   10.00000000   16.00000000   82.90160370   50.00000000
   10.00000000   16.00000000   89.12300110   50.00000000
   10.00000000   16.00000000   85.91829681   50.00000000
   10.00000000   16.00000000   86.08730316   50.00000000
   10.00000000   16.00000000   80.20950317   50.00000000
   10.00000000   16.00000000   -1.00000000   50.00000000
   10.00000000   16.00000000  131.36799622   50.00000000
   10.00000000   16.00000000  100.23200226   50.00000000
   10.00000000   16.00000000  170.24800110   50.00000000
   10.00000000   16.00000000  126.02400208   50.00000000
   10.00000000   16.00000000   -1.00000000   50.00000000
   10.00000000   16.00000000  152.34399414   50.00000000
   10.00000000   16.00000000   -1.00000000   50.00000000
   10.00000000   16.00000000  211.00500488   50.00000000
   10.00000000   16.00000000   -1.00000000   50.00000000
   10.00000000   16.00000000   91.45749664   50.00000000
   10.00000000   16.00000000   89.83450317   50.00000000
   10.00000000   16.00000000   89.11940002   50.00000000
   10.00000000   16.00000000   83.90560150   50.00000000
   10.00000000   16.00000000   87.77030182   50.00000000
   10.00000000   16.00000000   81.59339905   50.00000000
   10.00000000   16.00000000   79.97389984   50.00000000
   10.00000000   16.00000000   78.02819824   50.00000000
   10.00000000   16.00000000   78.57170105   50.00000000
   10.00000000   16.00000000   77.51329803   50.00000000
   10.00000000   16.00000000   77.64459991   50.00000000
   10.00000000   16.00000000   75.75350189   50.00000000
   10.00000000   16.00000000   77.81109619   50.00000000
   10.00000000   16.00000000   80.47730255   50.00000000
   10.00000000   16.00000000   79.92469788   50.00000000
   10.00000000   16.00000000   81.55000305   50.00000000
   10.00000000   16.00000000   79.12950134   50.00000000
   10.00000000   16.00000000   77.62989807   50.00000000
   10.00000000   16.00000000   76.98829651   50.00000000
   10.00000000   16.00000000   77.16439819   50.00000000
   10.00000000   16.00000000   81.24069977   50.00000000
   10.00000000   16.00000000   80.03050232   50.00000000
   10.00000000   16.00000000   82.08100128   50.00000000
   10.00000000   16.00000000   75.38520050   50.00000000
   10.00000000   16.00000000   77.23000336   50.00000000
   10.00000000   16.00000000   79.28859711   50.00000000
   10.00000000   16.00000000   76.59780121   50.00000000
   10.00000000   16.00000000   77.44920349   50.00000000
   10.00000000   16.00000000   79.89070129   50.00000000
   10.00000000   16.00000000   80.88890076   50.00000000
   10.00000000   16.00000000   79.06379700   50.00000000
   10.00000000   16.00000000   78.41079712   50.00000000
   10.00000000   16.00000000   80.05419922   50.00000000
   10.00000000   16.00000000   75.91200256   50.00000000
   10.00000000   16.00000000   81.79399872   50.00000000
   10.00000000   16.00000000   79.67420197   50.00000000
   10.00000000   16.00000000   79.37590027   50.00000000
   10.00000000   16.00000000   85.26889801   50.00000000
   10.00000000   16.00000000   81.09369659   50.00000000
   10.00000000   16.00000000   77.40290070   50.00000000
   10.00000000   16.00000000   76.18900299   50.00000000
   10.00000000   16.00000000   83.89340210   50.00000000
   10.00000000   16.00000000   78.88150024   50.00000000
   10.00000000   16.00000000   79.26450348   50.00000000
   10.00000000   16.00000000   77.55039978   50.00000000
   10.00000000   16.00000000   79.22290039   50.00000000
   10.00000000   16.00000000   75.77020264   50.00000000
   10.00000000   16.00000000   78.32479858   50.00000000
   10.00000000   16.00000000   79.78959656   50.00000000
   10.00000000   16.00000000   76.77780151   50.00000000
   10.00000000   16.00000000   76.56459808   50.00000000
   10.00000000   16.00000000   81.71880341   50.00000000
   10.00000000   16.00000000   83.63390350   50.00000000
   10.00000000   16.00000000   81.18009949   50.00000000
   10.00000000   16.00000000   80.90290070   50.00000000
   10.00000000   16.00000000   82.85549927   50.00000000
   10.00000000   16.00000000   83.36519623   50.00000000
   10.00000000   16.00000000   82.70800018   50.00000000
   10.00000000   16.00000000   83.64479828   50.00000000
   10.00000000   16.00000000   78.30480194   50.00000000
   10.00000000   16.00000000   78.45410156   50.00000000
   10.00000000   16.00000000   81.01329803   50.00000000
   10.00000000   16.00000000   80.82260132   50.00000000
   10.00000000   16.00000000   83.57350159   50.00000000
   10.00000000   16.00000000   77.81050110   50.00000000
   10.00000000   16.00000000   77.57250214   50.00000000
   10.00000000   16.00000000   77.67939758   50.00000000
   10.00000000   16.00000000   78.87619781   50.00000000
   10.00000000   16.00000000   82.89579773   50.00000000
   10.00000000   16.00000000   80.38569641   50.00000000
   10.00000000   16.00000000   80.45919800   50.00000000
   10.00000000   16.00000000   81.42359924   50.00000000
   10.00000000   16.00000000   81.80349731   50.00000000
   10.00000000   16.00000000   80.96410370   50.00000000
   10.00000000   16.00000000   77.03199768   50.00000000
   10.00000000   16.00000000   78.24929810   50.00000000
   10.00000000   16.00000000   79.53639984   50.00000000
   10.00000000   16.00000000   77.07209778   50.00000000
   10.00000000   16.00000000   82.75119781   50.00000000
   10.00000000   16.00000000   83.00399780   50.00000000
   10.00000000   16.00000000   86.51499939   50.00000000
   10.00000000   16.00000000   77.91519928   50.00000000
   10.00000000   16.00000000   83.46299744   50.00000000
   10.00000000   16.00000000   82.62470245   50.00000000
   10.00000000   16.00000000   79.80339813   50.00000000
   10.00000000   16.00000000   81.30120087   50.00000000
   10.00000000   16.00000000   91.97560120   50.00000000
   10.00000000   16.00000000   86.02989960   50.00000000
   10.00000000   16.00000000   87.60420227   50.00000000
   10.00000000   16.00000000   77.88739777   50.00000000
   10.00000000   16.00000000   77.44930267   50.00000000
   10.00000000   16.00000000   81.16919708   50.00000000
   10.00000000   16.00000000   76.77739716   50.00000000
   10.00000000   16.00000000   80.51820374   50.00000000
   10.00000000   16.00000000   80.46330261   50.00000000
   10.00000000   16.00000000   81.94090271   50.00000000
   10.00000000   16.00000000   78.30850220   50.00000000
   10.00000000   16.00000000   79.98680115   50.00000000
   10.00000000   16.00000000   78.80210114   50.00000000
   10.00000000   16.00000000   80.20919800   50.00000000
   10.00000000   16.00000000   83.60479736   50.00000000
   10.00000000   16.00000000   80.62249756   50.00000000
   10.00000000   16.00000000   82.68340302   50.00000000
   10.00000000   16.00000000   83.85169983   50.00000000
   10.00000000   16.00000000   80.20420074   50.00000000
   10.00000000   16.00000000   86.32260132   50.00000000
   10.00000000   16.00000000   83.62129974   50.00000000
   10.00000000   16.00000000   89.18170166   50.00000000
   10.00000000   16.00000000   89.91449738   50.00000000
   10.00000000   16.00000000   90.05300140   50.00000000
   10.00000000   16.00000000   87.88520050   50.00000000
   10.00000000   16.00000000   96.27729797   50.00000000
   10.00000000   16.00000000   99.74250031   50.00000000
   10.00000000   16.00000000  101.22699738   50.00000000
   10.00000000   16.00000000   99.09760284   50.00000000
   10.00000000   16.00000000   92.92890167   50.00000000
   10.00000000   16.00000000   96.32610321   50.00000000
   10.00000000   16.00000000   88.54969788   50.00000000
   10.00000000   16.00000000   86.67459869   50.00000000
   10.00000000   16.00000000   82.66030121   50.00000000
   10.00000000   16.00000000   83.33989716   50.00000000
   10.00000000   16.00000000   85.15419769   50.00000000
   10.00000000   16.00000000   85.42630005   50.00000000
   10.00000000   16.00000000   86.50009918   50.00000000
   10.00000000   16.00000000   81.23570251   50.00000000
   10.00000000   16.00000000   79.93759918   50.00000000
   10.00000000   16.00000000   81.64080048   50.00000000
   10.00000000   16.00000000   77.03929901   50.00000000
   10.00000000   16.00000000   78.91539764   50.00000000
   10.00000000   16.00000000   79.62779999   50.00000000
   10.00000000   16.00000000   79.79039764   50.00000000
   10.00000000   16.00000000   79.34230042   50.00000000
   10.00000000   16.00000000   82.97509766   50.00000000
   10.00000000   16.00000000   77.39040375   50.00000000
   10.00000000   16.00000000   78.77749634   50.00000000
   10.00000000   16.00000000   79.99269867   50.00000000
   10.00000000   16.00000000   81.75129700   50.00000000
   10.00000000   16.00000000   81.00309753   50.00000000
   10.00000000   16.00000000   82.26399994   50.00000000
   10.00000000   16.00000000   80.46309662   50.00000000
   10.00000000   16.00000000   81.32009888   50.00000000
   10.00000000   16.00000000   80.80460358   50.00000000
   10.00000000   16.00000000   88.06829834   50.00000000
   10.00000000   16.00000000   85.41660309   50.00000000
   10.00000000   16.00000000   80.87750244   50.00000000
   10.00000000   16.00000000   80.57669830   50.00000000
   10.00000000   16.00000000   83.40609741   50.00000000
   10.00000000   16.00000000   84.59279633   50.00000000
   10.00000000   16.00000000   83.67579651   50.00000000
   10.00000000   16.00000000   80.91049957   50.00000000
   10.00000000   16.00000000   89.69599915   50.00000000
   10.00000000   16.00000000   78.06320190   50.00000000
   10.00000000   16.00000000   82.17449951   50.00000000
   10.00000000   16.00000000   80.23349762   50.00000000
   10.00000000   16.00000000   80.20880127   50.00000000
   10.00000000   16.00000000   83.80879974   50.00000000
   10.00000000   16.00000000   86.21450043   50.00000000
   10.00000000   16.00000000   91.57959747   50.00000000
   10.00000000   16.00000000   85.63899994   50.00000000
   10.00000000   16.00000000   84.04450226   50.00000000
   10.00000000   16.00000000   83.87200165   50.00000000
   10.00000000   16.00000000   82.63790131   50.00000000
   10.00000000   16.00000000   84.23979950   50.00000000
   10.00000000   16.00000000   84.83000183   50.00000000
   10.00000000   16.00000000   80.91889954   50.00000000
   10.00000000   16.00000000   79.46399689   50.00000000
   10.00000000   16.00000000   77.31089783   50.00000000
   10.00000000   16.00000000   80.12680054   50.00000000
   10.00000000   16.00000000   78.61109924   50.00000000
   10.00000000   16.00000000   80.05629730   50.00000000
   10.00000000   16.00000000   79.67019653   50.00000000
   10.00000000   16.00000000   81.18669891   50.00000000
   10.00000000   16.00000000   78.97229767   50.00000000
   10.00000000   16.00000000   77.65190125   50.00000000
   10.00000000   16.00000000   75.33769989   50.00000000
   10.00000000   16.00000000   89.24569702   50.00000000
   10.00000000   16.00000000   81.61299896   50.00000000
   10.00000000   16.00000000   97.38700104   50.00000000
   10.00000000   16.00000000   91.76229858   50.00000000
   10.00000000   16.00000000   85.62840271   50.00000000
   10.00000000   16.00000000  108.21399689   50.00000000
   10.00000000   16.00000000  117.45899963   50.00000000
   10.00000000   16.00000000   -1.00000000   50.00000000
   10.00000000   16.00000000   -1.00000000   50.00000000
   10.00000000   16.00000000  118.00099945   50.00000000
   10.00000000   16.00000000   -1.00000000   50.00000000
   10.00000000   16.00000000   -1.00000000   50.00000000
   10.00000000   16.00000000   -1.00000000   50.00000000
   10.00000000   16.00000000   -1.00000000   50.00000000
   10.00000000   16.00000000  196.10800171   50.00000000
   10.00000000   16.00000000  121.15399933   50.00000000
   10.00000000   16.00000000  102.77500153   50.00000000
   10.00000000   16.00000000   92.93789673   50.00000000
   10.00000000   16.00000000   90.42539978   50.00000000
   10.00000000   16.00000000   94.82800293   50.00000000
   10.00000000   16.00000000   88.04959869   50.00000000
   10.00000000   16.00000000   81.98269653   50.00000000
   10.00000000   16.00000000   91.87429810   50.00000000
   10.00000000   16.00000000  108.45999908   50.00000000
   10.00000000   16.00000000  119.22699738   50.00000000
   10.00000000   16.00000000  120.33399963   50.00000000
   10.00000000   16.00000000   -1.00000000   50.00000000
   10.00000000   16.00000000   -1.00000000   50.00000000
   10.00000000   16.00000000   -1.00000000   50.00000000
   10.00000000   16.00000000   -1.00000000   50.00000000
   10.00000000   16.00000000   -1.00000000   50.00000000
   10.00000000   16.00000000   -1.00000000   50.00000000
   10.00000000   16.00000000   -1.00000000   50.00000000
   10.00000000   16.00000000   -1.00000000   50.00000000
   10.00000000   16.00000000   -1.00000000   50.00000000
   10.00000000   16.00000000  240.86599731   50.00000000
   10.00000000   16.00000000   91.80650330   50.00000000
   10.00000000   16.00000000   86.34850311   50.00000000
   10.00000000   16.00000000   83.01799774   50.00000000
   10.00000000   16.00000000   89.34380341   50.00000000
   10.00000000   16.00000000  105.68499756   50.00000000
   10.00000000   16.00000000  107.87500000   50.00000000
   10.00000000   16.00000000  109.90799713   50.00000000
   10.00000000   16.00000000   83.78320313   50.00000000
   10.00000000   16.00000000   89.33910370   50.00000000
   10.00000000   16.00000000   86.57510376   50.00000000
   10.00000000   16.00000000   84.31250000   50.00000000
   10.00000000   16.00000000   81.12390137   50.00000000
   10.00000000   16.00000000   84.56069946   50.00000000
   10.00000000   16.00000000   81.28420258   50.00000000
   10.00000000   16.00000000   82.30760193   50.00000000
   10.00000000   16.00000000   82.88539886   50.00000000
   10.00000000   16.00000000   89.03070068   50.00000000
   10.00000000   16.00000000   89.10769653   50.00000000
   10.00000000   16.00000000   83.55030060   50.00000000
   10.00000000   16.00000000   81.09929657   50.00000000
   10.00000000   16.00000000   81.11109924   50.00000000
   10.00000000   16.00000000   89.25350189   50.00000000
   10.00000000   16.00000000   87.40830231   50.00000000
   10.00000000   16.00000000   98.38150024   50.00000000
   10.00000000   16.00000000  156.46499634   50.00000000
   10.00000000   16.00000000   -1.00000000   50.00000000
   10.00000000   16.00000000  152.51899719   50.00000000
   10.00000000   16.00000000  102.32399750   50.00000000
   10.00000000   16.00000000  115.33699799   50.00000000
   10.00000000   16.00000000   92.67299652   50.00000000
   10.00000000   16.00000000  128.96299744   50.00000000
   10.00000000   16.00000000  119.47200012   50.00000000
   10.00000000   16.00000000   93.27010345   50.00000000
   10.00000000   16.00000000  125.31300354   50.00000000
   10.00000000   17.00000000  100.46900177   50.00000000
   10.00000000   17.00000000  132.07299805   50.00000000
   10.00000000   17.00000000  152.32499695   50.00000000
   10.00000000   17.00000000  155.49600220   50.00000000
   10.00000000   17.00000000  100.91799927   50.00000000
   10.00000000   17.00000000  113.47899628   50.00000000
   10.00000000   17.00000000  213.93899536   50.00000000
   10.00000000   17.00000000  192.45399475   50.00000000
   10.00000000   17.00000000  215.78300476   50.00000000
   10.00000000   17.00000000   -1.00000000   50.00000000
   10.00000000   17.00000000   -1.00000000   50.00000000
   10.00000000   17.00000000  163.78700256   50.00000000
   10.00000000   17.00000000  100.38600159   50.00000000
   10.00000000   17.00000000   99.50810242   50.00000000
   10.00000000   17.00000000   84.73149872   50.00000000
   10.00000000   17.00000000   89.56500244   50.00000000
   10.00000000   17.00000000   90.06549835   50.00000000
   10.00000000   17.00000000   92.66449738   50.00000000
   10.00000000   17.00000000   94.57119751   50.00000000
   10.00000000   17.00000000  124.97799683   50.00000000
   10.00000000   17.00000000  131.29699707   50.00000000
   10.00000000   17.00000000  165.77299500   50.00000000
   10.00000000   17.00000000   -1.00000000   50.00000000
   10.00000000   17.00000000   -1.00000000   50.00000000
   10.00000000   17.00000000   -1.00000000   50.00000000
   10.00000000   17.00000000   -1.00000000   50.00000000
   10.00000000   17.00000000   -1.00000000   50.00000000
   10.00000000   17.00000000   -1.00000000   50.00000000
   10.00000000   17.00000000   -1.00000000   50.00000000
   10.00000000   17.00000000   -1.00000000   50.00000000
   10.00000000   17.00000000   -1.00000000   50.00000000
   10.00000000   17.00000000   -1.00000000   50.00000000
   10.00000000   17.00000000   -1.00000000   50.00000000
   10.00000000   17.00000000   -1.00000000   50.00000000
   10.00000000   17.00000000   -1.00000000   50.00000000
   10.00000000   17.00000000   -1.00000000   50.00000000
   10.00000000   17.00000000   -1.00000000   50.00000000
   10.00000000   17.00000000   -1.00000000   50.00000000
   10.00000000   17.00000000   -1.00000000   50.00000000
   10.00000000   17.00000000   -1.00000000   50.00000000
   10.00000000   17.00000000   38.40240097   50.00000000
   10.00000000   17.00000000  138.82600403   50.00000000
   10.00000000   17.00000000  123.38600159   50.00000000
   10.00000000   17.00000000   82.41600037   50.00000000
   10.00000000   17.00000000   93.08110046   50.00000000
   10.00000000   17.00000000   94.17230225   50.00000000
   10.00000000   17.00000000  113.68900299   50.00000000
   10.00000000   17.00000000  154.25799561   50.00000000
   10.00000000   17.00000000   62.65819931   50.00000000
   10.00000000   17.00000000   -1.00000000   50.00000000
   10.00000000   17.00000000   -1.00000000   50.00000000
   10.00000000   17.00000000   -1.00000000   50.00000000
   10.00000000   17.00000000  129.10499573   50.00000000
   10.00000000   17.00000000  107.72499847   50.00000000
   10.00000000   17.00000000  117.46099854   50.00000000
   10.00000000   17.00000000  116.74700165   50.00000000
   10.00000000   17.00000000  130.38999939   50.00000000
   10.00000000   17.00000000  132.35899353   50.00000000
   10.00000000   17.00000000  149.85600281   50.00000000
   10.00000000   17.00000000  126.78500366   50.00000000
   10.00000000   17.00000000  202.29400635   50.00000000
   10.00000000   17.00000000  149.70899963   50.00000000
   10.00000000   17.00000000  167.84700012   50.00000000
   10.00000000   17.00000000  103.44799805   50.00000000
   10.00000000   17.00000000  185.77099609   50.00000000
   10.00000000   17.00000000  159.52900696   50.00000000
   10.00000000   17.00000000  159.04299927   50.00000000
   10.00000000   17.00000000  129.98100281   50.00000000
   10.00000000   17.00000000   62.50659943   50.00000000
   10.00000000   17.00000000   -1.00000000   50.00000000
   10.00000000   17.00000000  200.93600464   50.00000000
   10.00000000   17.00000000  108.99900055   50.00000000
   10.00000000   17.00000000   -1.00000000   50.00000000
   10.00000000   17.00000000   -1.00000000   50.00000000
   10.00000000   17.00000000   -1.00000000   50.00000000
   10.00000000   17.00000000   -1.00000000   50.00000000
   10.00000000   17.00000000   -1.00000000   50.00000000
   10.00000000   17.00000000   -1.00000000   50.00000000
   10.00000000   17.00000000   38.33060074   50.00000000
   10.00000000   17.00000000  172.74099731   50.00000000
   10.00000000   17.00000000  101.65399933   50.00000000
   10.00000000   17.00000000  191.46099854   50.00000000
   10.00000000   17.00000000   -1.00000000   50.00000000
   10.00000000   17.00000000  200.51800537   50.00000000
   10.00000000   17.00000000   95.78919983   50.00000000
   10.00000000   17.00000000  116.80000305   50.00000000
   10.00000000   17.00000000   93.47730255   50.00000000
   10.00000000   17.00000000   82.15029907   50.00000000
   10.00000000   17.00000000   83.99520111   50.00000000
   10.00000000   17.00000000   75.93070221   50.00000000
   10.00000000   17.00000000   82.05549622   50.00000000
   10.00000000   17.00000000   87.85099792   50.00000000
   10.00000000   17.00000000   90.07270050   50.00000000
   10.00000000   17.00000000   93.66960144   50.00000000
   10.00000000   17.00000000  202.05299377   50.00000000
   10.00000000   17.00000000   -1.00000000   50.00000000
   10.00000000   17.00000000   -1.00000000   50.00000000
   10.00000000   17.00000000   -1.00000000   50.00000000
   10.00000000   17.00000000   -1.00000000   50.00000000
   10.00000000   17.00000000  144.59500122   50.00000000
   10.00000000   17.00000000   51.47330093   50.00000000
   10.00000000   17.00000000   -1.00000000   50.00000000
   10.00000000   17.00000000   -1.00000000   50.00000000
   10.00000000   17.00000000   -1.00000000   50.00000000
   10.00000000   17.00000000   -1.00000000   50.00000000
   10.00000000   17.00000000   -1.00000000   50.00000000
   10.00000000   17.00000000   -1.00000000   50.00000000
   10.00000000   17.00000000   -1.00000000   50.00000000
   10.00000000   17.00000000   -1.00000000   50.00000000
   10.00000000   17.00000000   -1.00000000   50.00000000
   10.00000000   17.00000000   -1.00000000   50.00000000
   10.00000000   17.00000000   -1.00000000   50.00000000
   10.00000000   17.00000000   -1.00000000   50.00000000
   10.00000000   17.00000000   -1.00000000   50.00000000
   10.00000000   17.00000000   -1.00000000   50.00000000
   10.00000000   17.00000000   -1.00000000   50.00000000
   10.00000000   17.00000000   -1.00000000   50.00000000
   10.00000000   17.00000000   -1.00000000   50.00000000
   10.00000000   17.00000000   -1.00000000   50.00000000
   10.00000000   17.00000000   -1.00000000   50.00000000
   10.00000000   17.00000000   -1.00000000   50.00000000
   10.00000000   17.00000000   -1.00000000   50.00000000
   10.00000000   17.00000000   -1.00000000   50.00000000
   10.00000000   17.00000000   -1.00000000   50.00000000
   10.00000000   17.00000000   -1.00000000   50.00000000
   10.00000000   17.00000000  183.46800232   50.00000000
   10.00000000   17.00000000  105.09100342   50.00000000
   10.00000000   17.00000000  130.41299438   50.00000000
   10.00000000   17.00000000  140.30299377   50.00000000
   10.00000000   17.00000000  106.07499695   50.00000000
   10.00000000   17.00000000  121.08100128   50.00000000
   10.00000000   17.00000000   -1.00000000   50.00000000
   10.00000000   17.00000000   -1.00000000   50.00000000
   10.00000000   17.00000000   -1.00000000   50.00000000
   10.00000000   17.00000000   -1.00000000   50.00000000
   10.00000000   17.00000000   -1.00000000   50.00000000
   10.00000000   17.00000000  179.99000549   50.00000000
   10.00000000   17.00000000   -1.00000000   50.00000000
   10.00000000   17.00000000   -1.00000000   50.00000000
   10.00000000   17.00000000  116.87999725   50.00000000
   10.00000000   17.00000000   93.94200134   50.00000000
   10.00000000   17.00000000   94.19280243   50.00000000
   10.00000000   17.00000000   94.98590088   50.00000000
   10.00000000   17.00000000   92.09539795   50.00000000
   10.00000000   17.00000000  164.89199829   50.00000000
   10.00000000   17.00000000  125.53299713   50.00000000
   10.00000000   17.00000000  109.46199799   50.00000000
   10.00000000   17.00000000   91.35900116   50.00000000
   10.00000000   17.00000000  102.02899933   50.00000000
   10.00000000   17.00000000  144.51400757   50.00000000
   10.00000000   17.00000000   -1.00000000   50.00000000
   10.00000000   17.00000000          -NaN   50.00000000
   10.00000000   17.00000000   -1.00000000   50.00000000
   10.00000000   17.00000000   -1.00000000   50.00000000
   10.00000000   17.00000000   -1.00000000   50.00000000
   10.00000000   17.00000000   -1.00000000   50.00000000
   10.00000000   17.00000000   -1.00000000   50.00000000
   10.00000000   17.00000000   -1.00000000   50.00000000
   10.00000000   17.00000000   -1.00000000   50.00000000
   10.00000000   17.00000000   -1.00000000   50.00000000
   10.00000000   17.00000000   -1.00000000   50.00000000
   10.00000000   17.00000000   -1.00000000   50.00000000
   10.00000000   17.00000000   -1.00000000   50.00000000
   10.00000000   17.00000000   -1.00000000   50.00000000
   10.00000000   17.00000000   -1.00000000   50.00000000
   10.00000000   17.00000000   -1.00000000   50.00000000
   10.00000000   17.00000000   -1.00000000   50.00000000
   10.00000000   17.00000000   -1.00000000   50.00000000
   10.00000000   17.00000000   -1.00000000   50.00000000
   10.00000000   17.00000000   -1.00000000   50.00000000
   10.00000000   17.00000000   -1.00000000   50.00000000
   10.00000000   17.00000000   -1.00000000   50.00000000
   10.00000000   17.00000000   -1.00000000   50.00000000
   10.00000000   17.00000000   -1.00000000   50.00000000
   10.00000000   17.00000000   -1.00000000   50.00000000
   10.00000000   17.00000000   -1.00000000   50.00000000
   10.00000000   17.00000000  120.38400269   50.00000000
   10.00000000   17.00000000   88.65740204   50.00000000
   10.00000000   17.00000000   94.47200012   50.00000000
   10.00000000   17.00000000   88.99469757   50.00000000
   10.00000000   17.00000000   91.99299622   50.00000000
   10.00000000   17.00000000   85.79779816   50.00000000
   10.00000000   17.00000000   83.98100281   50.00000000
   10.00000000   17.00000000   87.29010010   50.00000000
   10.00000000   17.00000000   82.34300232   50.00000000
   10.00000000   17.00000000   86.27149963   50.00000000
   10.00000000   17.00000000   85.67970276   50.00000000
   10.00000000   17.00000000   81.98059845   50.00000000
   10.00000000   17.00000000   84.65989685   50.00000000
   10.00000000   17.00000000   81.68039703   50.00000000
   10.00000000   17.00000000   86.18360138   50.00000000
   10.00000000   17.00000000   78.21510315   50.00000000
   10.00000000   17.00000000   80.08200073   50.00000000
   10.00000000   17.00000000   80.84580231   50.00000000
   10.00000000   17.00000000   78.01719666   50.00000000
   10.00000000   17.00000000   79.20690155   50.00000000
   10.00000000   17.00000000   79.31529999   50.00000000
   10.00000000   17.00000000   77.67379761   50.00000000
   10.00000000   17.00000000   78.30570221   50.00000000
   10.00000000   17.00000000   78.23930359   50.00000000
   10.00000000   17.00000000   89.90840149   50.00000000
   10.00000000   17.00000000  205.80900574   50.00000000
   10.00000000   17.00000000   -1.00000000   50.00000000
   10.00000000   17.00000000   -1.00000000   50.00000000
   10.00000000   17.00000000   -1.00000000   50.00000000
   10.00000000   17.00000000   -1.00000000   50.00000000
   10.00000000   17.00000000   -1.00000000   50.00000000
   10.00000000   17.00000000   -1.00000000   50.00000000
   10.00000000   17.00000000   -1.00000000   50.00000000
   10.00000000   17.00000000   -1.00000000   50.00000000
   10.00000000   17.00000000   -1.00000000   50.00000000
   10.00000000   17.00000000  175.70799255   50.00000000
   10.00000000   17.00000000  125.27100372   50.00000000
   10.00000000   17.00000000  137.63400269   50.00000000
   10.00000000   17.00000000  182.27699280   50.00000000
   10.00000000   17.00000000  114.12100220   50.00000000
   10.00000000   17.00000000   69.53939819   50.00000000
   10.00000000   17.00000000  124.93099976   50.00000000
   10.00000000   17.00000000   -1.00000000   50.00000000
   10.00000000   17.00000000   -1.00000000   50.00000000
   10.00000000   17.00000000  147.20500183   50.00000000
   10.00000000   17.00000000  120.64399719   50.00000000
   10.00000000   17.00000000   82.76329803   50.00000000
   10.00000000   17.00000000   88.73829651   50.00000000
   10.00000000   17.00000000   86.34670258   50.00000000
   10.00000000   17.00000000   82.16179657   50.00000000
   10.00000000   17.00000000   88.05280304   50.00000000
   10.00000000   17.00000000   91.53289795   50.00000000
   10.00000000   17.00000000   80.03530121   50.00000000
   10.00000000   17.00000000   84.41790009   50.00000000
   10.00000000   17.00000000   99.13430023   50.00000000
   10.00000000   17.00000000  106.88999939   50.00000000
   10.00000000   17.00000000  203.43899536   50.00000000
   10.00000000   17.00000000   -1.00000000   50.00000000
   10.00000000   17.00000000   -1.00000000   50.00000000
   10.00000000   17.00000000   -1.00000000   50.00000000
   10.00000000   17.00000000   -1.00000000   50.00000000
   10.00000000   17.00000000   -1.00000000   50.00000000
   10.00000000   17.00000000   -1.00000000   50.00000000
   10.00000000   17.00000000   -1.00000000   50.00000000
   10.00000000   17.00000000   -1.00000000   50.00000000
   10.00000000   17.00000000   -1.00000000   50.00000000
   10.00000000   17.00000000   -1.00000000   50.00000000
   10.00000000   17.00000000   -1.00000000   50.00000000
   10.00000000   17.00000000   -1.00000000   50.00000000
   10.00000000   17.00000000   -1.00000000   50.00000000
   10.00000000   17.00000000   -1.00000000   50.00000000
   10.00000000   17.00000000   -1.00000000   50.00000000
   10.00000000   17.00000000   -1.00000000   50.00000000
   10.00000000   17.00000000   -1.00000000   50.00000000
   10.00000000   17.00000000   -1.00000000   50.00000000
   10.00000000   17.00000000   -1.00000000   50.00000000
   10.00000000   17.00000000   -1.00000000   50.00000000
   10.00000000   17.00000000   -1.00000000   50.00000000
   10.00000000   17.00000000   -1.00000000   50.00000000
   10.00000000   17.00000000   -1.00000000   50.00000000
   10.00000000   17.00000000   -1.00000000   50.00000000
   10.00000000   17.00000000   -1.00000000   50.00000000
   10.00000000   17.00000000   -1.00000000   50.00000000
   10.00000000   17.00000000   -1.00000000   50.00000000
   10.00000000   17.00000000   -1.00000000   50.00000000
   10.00000000   17.00000000   -1.00000000   50.00000000
   10.00000000   17.00000000   -1.00000000   50.00000000
   10.00000000   17.00000000   -1.00000000   50.00000000
   10.00000000   17.00000000   -1.00000000   50.00000000
   10.00000000   17.00000000   -1.00000000   50.00000000
   10.00000000   17.00000000   -1.00000000   50.00000000
   10.00000000   17.00000000   -1.00000000   50.00000000
   10.00000000   17.00000000   -1.00000000   50.00000000
   10.00000000   17.00000000   -1.00000000   50.00000000
   10.00000000   17.00000000   -1.00000000   50.00000000
   10.00000000   17.00000000   -1.00000000   50.00000000
   10.00000000   17.00000000   -1.00000000   50.00000000
   10.00000000   17.00000000   -1.00000000   50.00000000
   10.00000000   17.00000000   -1.00000000   50.00000000
   10.00000000   17.00000000   -1.00000000   50.00000000
   10.00000000   17.00000000   -1.00000000   50.00000000
   10.00000000   17.00000000   -1.00000000   50.00000000
   10.00000000   17.00000000   -1.00000000   50.00000000
   10.00000000   17.00000000   -1.00000000   50.00000000
   10.00000000   17.00000000   -1.00000000   50.00000000
   10.00000000   17.00000000   -1.00000000   50.00000000
   10.00000000   17.00000000   -1.00000000   50.00000000
   10.00000000   17.00000000   -1.00000000   50.00000000
   10.00000000   17.00000000   -1.00000000   50.00000000
   10.00000000   17.00000000   -1.00000000   50.00000000
   10.00000000   17.00000000   -1.00000000   50.00000000
   10.00000000   17.00000000   -1.00000000   50.00000000
   10.00000000   17.00000000   -1.00000000   50.00000000
   10.00000000   17.00000000   -1.00000000   50.00000000
   10.00000000   17.00000000   -1.00000000   50.00000000
   10.00000000   17.00000000   -1.00000000   50.00000000
   10.00000000   17.00000000   -1.00000000   50.00000000
   10.00000000   17.00000000   -1.00000000   50.00000000
   10.00000000   17.00000000   -1.00000000   50.00000000
   10.00000000   17.00000000   -1.00000000   50.00000000
   10.00000000   17.00000000   -1.00000000   50.00000000
   10.00000000   17.00000000   -1.00000000   50.00000000
   10.00000000   17.00000000   -1.00000000   50.00000000
   10.00000000   17.00000000   -1.00000000   50.00000000
   10.00000000   17.00000000   -1.00000000   50.00000000
   10.00000000   17.00000000   -1.00000000   50.00000000
   10.00000000   17.00000000   -1.00000000   50.00000000
   10.00000000   17.00000000   -1.00000000   50.00000000
   10.00000000   17.00000000   -1.00000000   50.00000000
   10.00000000   17.00000000   -1.00000000   50.00000000
   10.00000000   17.00000000   -1.00000000   50.00000000
   10.00000000   17.00000000   -1.00000000   50.00000000
   10.00000000   17.00000000   -1.00000000   50.00000000
   10.00000000   17.00000000   -1.00000000   50.00000000
   10.00000000   17.00000000   -1.00000000   50.00000000
   10.00000000   17.00000000   -1.00000000   50.00000000
   10.00000000   17.00000000   -1.00000000   50.00000000
   10.00000000   17.00000000   -1.00000000   50.00000000
   10.00000000   17.00000000   -1.00000000   50.00000000
   10.00000000   17.00000000   -1.00000000   50.00000000
   10.00000000   17.00000000   -1.00000000   50.00000000
   10.00000000   17.00000000   -1.00000000   50.00000000
   10.00000000   17.00000000   -1.00000000   50.00000000
   10.00000000   17.00000000   -1.00000000   50.00000000
   10.00000000   17.00000000   -1.00000000   50.00000000
   10.00000000   17.00000000   -1.00000000   50.00000000
   10.00000000   17.00000000   -1.00000000   50.00000000
   10.00000000   17.00000000   -1.00000000   50.00000000
   10.00000000   17.00000000   -1.00000000   50.00000000
   10.00000000   18.00000000   -1.00000000   50.00000000
   10.00000000   18.00000000   -1.00000000   50.00000000
   10.00000000   18.00000000   -1.00000000   50.00000000
   10.00000000   18.00000000   -1.00000000   50.00000000
   10.00000000   18.00000000   -1.00000000   50.00000000
   10.00000000   18.00000000   -1.00000000   50.00000000
   10.00000000   18.00000000   -1.00000000   50.00000000
   10.00000000   18.00000000   -1.00000000   50.00000000
   10.00000000   18.00000000   -1.00000000   50.00000000
   10.00000000   18.00000000   -1.00000000   50.00000000
   10.00000000   18.00000000   -1.00000000   50.00000000
   10.00000000   18.00000000   -1.00000000   50.00000000
   10.00000000   18.00000000   -1.00000000   50.00000000
   10.00000000   18.00000000   -1.00000000   50.00000000
   10.00000000   18.00000000   -1.00000000   50.00000000
   10.00000000   18.00000000   -1.00000000   50.00000000
   10.00000000   18.00000000   -1.00000000   50.00000000
   10.00000000   18.00000000   -1.00000000   50.00000000
   10.00000000   18.00000000   -1.00000000   50.00000000
   10.00000000   18.00000000   -1.00000000   50.00000000
   10.00000000   18.00000000   -1.00000000   50.00000000
   10.00000000   18.00000000   -1.00000000   50.00000000
   10.00000000   18.00000000   -1.00000000   50.00000000
   10.00000000   18.00000000   -1.00000000   50.00000000
   10.00000000   18.00000000   -1.00000000   50.00000000
   10.00000000   18.00000000   -1.00000000   50.00000000
   10.00000000   18.00000000   -1.00000000   50.00000000
   10.00000000   18.00000000   -1.00000000   50.00000000
   10.00000000   18.00000000   -1.00000000   50.00000000
   10.00000000   18.00000000   -1.00000000   50.00000000
   10.00000000   18.00000000   86.11090088   50.00000000
   10.00000000   18.00000000   96.80349731   50.00000000
   10.00000000   18.00000000  109.60700226   50.00000000
   10.00000000   18.00000000   -1.00000000   50.00000000
   10.00000000   18.00000000  124.45099640   50.00000000
   10.00000000   18.00000000  140.57899475   50.00000000
   10.00000000   18.00000000   97.97640228   50.00000000
   10.00000000   18.00000000   95.88559723   50.00000000
   10.00000000   18.00000000   93.86840057   50.00000000
   10.00000000   18.00000000   83.38130188   50.00000000
   10.00000000   18.00000000   80.74179840   50.00000000
   10.00000000   18.00000000   84.10389709   50.00000000
   10.00000000   18.00000000   80.13899994   50.00000000
   10.00000000   18.00000000   94.64459991   50.00000000
   10.00000000   18.00000000  192.04499817   50.00000000
   10.00000000   18.00000000  146.03399658   50.00000000
   10.00000000   18.00000000   83.39270020   50.00000000
   10.00000000   18.00000000   82.41470337   50.00000000
   10.00000000   18.00000000   80.42539978   50.00000000
   10.00000000   18.00000000   79.82630157   50.00000000
   10.00000000   18.00000000   80.32659912   50.00000000
   10.00000000   18.00000000   84.77200317   50.00000000
   10.00000000   18.00000000   83.61530304   50.00000000
   10.00000000   18.00000000   82.55539703   50.00000000
   10.00000000   18.00000000   83.13670349   50.00000000
   10.00000000   18.00000000   96.57409668   50.00000000
   10.00000000   18.00000000   86.95870209   50.00000000
   10.00000000   18.00000000   83.63410187   50.00000000
   10.00000000   18.00000000   84.86180115   50.00000000
   10.00000000   18.00000000   92.57039642   50.00000000
   10.00000000   18.00000000   86.20819855   50.00000000
   10.00000000   18.00000000   85.67520142   50.00000000
   10.00000000   18.00000000   92.87850189   50.00000000
   10.00000000   18.00000000   89.10399628   50.00000000
   10.00000000   18.00000000   84.95220184   50.00000000
   10.00000000   18.00000000   82.95159912   50.00000000
   10.00000000   18.00000000   86.56510162   50.00000000
   10.00000000   18.00000000   90.10230255   50.00000000
   10.00000000   18.00000000   88.15899658   50.00000000
   10.00000000   18.00000000   83.59429932   50.00000000
   10.00000000   18.00000000   79.93280029   50.00000000
   10.00000000   18.00000000   78.76619720   50.00000000
   10.00000000   18.00000000   81.79139709   50.00000000
   10.00000000   18.00000000   83.85079956   50.00000000
   10.00000000   18.00000000   84.12110138   50.00000000
   10.00000000   18.00000000   87.49030304   50.00000000
   10.00000000   18.00000000   89.32289886   50.00000000
   10.00000000   18.00000000   99.35189819   50.00000000
   10.00000000   18.00000000   92.83090210   50.00000000
   10.00000000   18.00000000  123.88500214   50.00000000
   10.00000000   18.00000000  140.64599609   50.00000000
   10.00000000   18.00000000  128.92900085   50.00000000
   10.00000000   18.00000000   99.57740021   50.00000000
   10.00000000   18.00000000  101.12300110   50.00000000
   10.00000000   18.00000000   92.46410370   50.00000000
   10.00000000   18.00000000   90.88059998   50.00000000
   10.00000000   18.00000000   89.27739716   50.00000000
   10.00000000   18.00000000  115.81800079   50.00000000
   10.00000000   18.00000000  193.76300049   50.00000000
   10.00000000   18.00000000  189.82400513   50.00000000
   10.00000000   18.00000000   -1.00000000   50.00000000
   10.00000000   18.00000000  225.77799988   50.00000000
   10.00000000   18.00000000  159.19000244   50.00000000
   10.00000000   18.00000000  106.92299652   50.00000000
   10.00000000   18.00000000   92.50060272   50.00000000
   10.00000000   18.00000000   86.68360138   50.00000000
   10.00000000   18.00000000  111.07800293   50.00000000
   10.00000000   18.00000000  114.47499847   50.00000000
   10.00000000   18.00000000  103.25399780   50.00000000
   10.00000000   18.00000000  115.37200165   50.00000000
   10.00000000   18.00000000  111.29699707   50.00000000
   10.00000000   18.00000000  175.03599548   50.00000000
   10.00000000   18.00000000  224.35800171   50.00000000
   10.00000000   18.00000000  178.29800415   50.00000000
   10.00000000   18.00000000  196.14399719   50.00000000
   10.00000000   18.00000000  239.39599609   50.00000000
   10.00000000   18.00000000  117.80100250   50.00000000
   10.00000000   18.00000000   93.91359711   50.00000000
   10.00000000   18.00000000  102.67400360   50.00000000
   10.00000000   18.00000000  102.03299713   50.00000000
   10.00000000   18.00000000  100.02600098   50.00000000
   10.00000000   18.00000000  102.88500214   50.00000000
   10.00000000   18.00000000   99.50659943   50.00000000
   10.00000000   18.00000000   95.94309998   50.00000000
   10.00000000   18.00000000  110.56600189   50.00000000
   10.00000000   18.00000000  116.94999695   50.00000000
   10.00000000   18.00000000  185.31700134   50.00000000
   10.00000000   18.00000000  133.03999329   50.00000000
   10.00000000   18.00000000  164.45799255   50.00000000
   10.00000000   18.00000000  171.30599976   50.00000000
   10.00000000   18.00000000  123.84200287   50.00000000
   10.00000000   18.00000000  129.12699890   50.00000000
   10.00000000   18.00000000  146.03700256   50.00000000
   10.00000000   18.00000000  179.43099976   50.00000000
   10.00000000   18.00000000  205.09199524   50.00000000
   10.00000000   18.00000000   79.42250061   50.00000000
   10.00000000   18.00000000   -1.00000000   50.00000000
   10.00000000   18.00000000   23.57019997   50.00000000
   10.00000000   18.00000000   -1.00000000   50.00000000
   10.00000000   18.00000000   -1.00000000   50.00000000
   10.00000000   18.00000000   23.57019997   50.00000000
   10.00000000   18.00000000   54.29339981   50.00000000
   10.00000000   18.00000000  144.36999512   50.00000000
   10.00000000   18.00000000  100.19799805   50.00000000
   10.00000000   18.00000000   -1.00000000   50.00000000
   10.00000000   18.00000000   -1.00000000   50.00000000
   10.00000000   18.00000000   -1.00000000   50.00000000
   10.00000000   18.00000000   -1.00000000   50.00000000
   10.00000000   18.00000000   -1.00000000   50.00000000
   10.00000000   18.00000000   -1.00000000   50.00000000
   10.00000000   18.00000000   -1.00000000   50.00000000
   10.00000000   18.00000000   -1.00000000   50.00000000
   10.00000000   18.00000000   -1.00000000   50.00000000
   10.00000000   18.00000000   -1.00000000   50.00000000
   10.00000000   18.00000000   -1.00000000   50.00000000
   10.00000000   18.00000000   -1.00000000   50.00000000
   10.00000000   18.00000000          -NaN   50.00000000
   10.00000000   18.00000000  167.29600525   50.00000000
   10.00000000   18.00000000   91.28579712   50.00000000
   10.00000000   18.00000000  221.28100586   50.00000000
   10.00000000   18.00000000  171.96699524   50.00000000
   10.00000000   18.00000000  139.08200073   50.00000000
   10.00000000   18.00000000  110.07099915   50.00000000
   10.00000000   18.00000000  104.91799927   50.00000000
   10.00000000   18.00000000   88.19960022   50.00000000
   10.00000000   18.00000000   92.42209625   50.00000000
   10.00000000   18.00000000   98.41259766   50.00000000
   10.00000000   18.00000000   98.80370331   50.00000000
   10.00000000   18.00000000   96.54550171   50.00000000
   10.00000000   18.00000000  115.69300079   50.00000000
   10.00000000   18.00000000  109.06900024   50.00000000
   10.00000000   18.00000000  115.36000061   50.00000000
   10.00000000   18.00000000  106.30300140   50.00000000
   10.00000000   18.00000000  117.82800293   50.00000000
   10.00000000   18.00000000   98.59919739   50.00000000
   10.00000000   18.00000000   89.95739746   50.00000000
   10.00000000   18.00000000   97.90589905   50.00000000
   10.00000000   18.00000000   87.00019836   50.00000000
   10.00000000   18.00000000   82.15390015   50.00000000
   10.00000000   18.00000000   90.90940094   50.00000000
   10.00000000   18.00000000   87.68689728   50.00000000
   10.00000000   18.00000000   83.90429688   50.00000000
   10.00000000   18.00000000   88.17600250   50.00000000
   10.00000000   18.00000000  101.16600037   50.00000000
   10.00000000   18.00000000   84.76730347   50.00000000
   10.00000000   18.00000000   98.91560364   50.00000000
   10.00000000   18.00000000   98.66780090   50.00000000
   10.00000000   18.00000000   89.69200134   50.00000000
   10.00000000   18.00000000   92.38410187   50.00000000
   10.00000000   18.00000000  101.41200256   50.00000000
   10.00000000   18.00000000  123.73899841   50.00000000
   10.00000000   18.00000000  127.40000153   50.00000000
   10.00000000   18.00000000  108.73600006   50.00000000
   10.00000000   18.00000000  110.45999908   50.00000000
   10.00000000   18.00000000  137.66999817   50.00000000
   10.00000000   18.00000000  106.32099915   50.00000000
   10.00000000   18.00000000  103.68000031   50.00000000
   10.00000000   18.00000000   94.43499756   50.00000000
   10.00000000   18.00000000   91.49559784   50.00000000
   10.00000000   18.00000000   85.00389862   50.00000000
   10.00000000   18.00000000   85.82389832   50.00000000
   10.00000000   18.00000000   90.53289795   50.00000000
   10.00000000   18.00000000   85.50820160   50.00000000
   10.00000000   18.00000000   85.95780182   50.00000000
   10.00000000   18.00000000   88.64620209   50.00000000
   10.00000000   18.00000000  113.50499725   50.00000000
   10.00000000   18.00000000   91.45449829   50.00000000
   10.00000000   18.00000000   89.61280060   50.00000000
   10.00000000   18.00000000   89.66490173   50.00000000
   10.00000000   18.00000000   86.90830231   50.00000000
   10.00000000   18.00000000   84.08969879   50.00000000
   10.00000000   18.00000000   91.88800049   50.00000000
   10.00000000   18.00000000  170.19799805   50.00000000
   10.00000000   18.00000000   95.16979980   50.00000000
   10.00000000   18.00000000   97.84960175   50.00000000
   10.00000000   18.00000000   88.31939697   50.00000000
   10.00000000   18.00000000   99.73459625   50.00000000
   10.00000000   18.00000000   90.00969696   50.00000000
   10.00000000   18.00000000  100.94499969   50.00000000
   10.00000000   18.00000000  113.38099670   50.00000000
   10.00000000   18.00000000  100.01200104   50.00000000
   10.00000000   18.00000000   95.18679810   50.00000000
   10.00000000   18.00000000   90.20690155   50.00000000
   10.00000000   18.00000000   89.38159943   50.00000000
   10.00000000   18.00000000   88.18340302   50.00000000
   10.00000000   18.00000000   88.70690155   50.00000000
   10.00000000   18.00000000   89.41639709   50.00000000
   10.00000000   18.00000000   86.90859985   50.00000000
   10.00000000   18.00000000   -1.00000000   50.00000000
   10.00000000   18.00000000   -1.00000000   50.00000000
   10.00000000   18.00000000   -1.00000000   50.00000000
   10.00000000   18.00000000   -1.00000000   50.00000000
   10.00000000   18.00000000   -1.00000000   50.00000000
   10.00000000   18.00000000   -1.00000000   50.00000000
   10.00000000   18.00000000  107.97599792   50.00000000
   10.00000000   18.00000000   88.50080109   50.00000000
   10.00000000   18.00000000   84.87860107   50.00000000
   10.00000000   18.00000000   84.04679871   50.00000000
   10.00000000   18.00000000   83.99369812   50.00000000
   10.00000000   18.00000000   87.06020355   50.00000000
   10.00000000   18.00000000   82.62789917   50.00000000
   10.00000000   18.00000000   84.76599884   50.00000000
   10.00000000   18.00000000   89.34709930   50.00000000
   10.00000000   18.00000000   89.37169647   50.00000000
   10.00000000   18.00000000  182.32299805   50.00000000
   10.00000000   18.00000000   -1.00000000   50.00000000
   10.00000000   18.00000000   -1.00000000   50.00000000
   10.00000000   18.00000000   94.39700317   50.00000000
   10.00000000   18.00000000   85.79789734   50.00000000
   10.00000000   18.00000000  100.66799927   50.00000000
   10.00000000   18.00000000   94.12560272   50.00000000
   10.00000000   18.00000000  190.44799805   50.00000000
   10.00000000   18.00000000   -1.00000000   50.00000000
   10.00000000   18.00000000   -1.00000000   50.00000000
   10.00000000   18.00000000   -1.00000000   50.00000000
   10.00000000   18.00000000   -1.00000000   50.00000000
   10.00000000   18.00000000   -1.00000000   50.00000000
   10.00000000   18.00000000   -1.00000000   50.00000000
   10.00000000   18.00000000   -1.00000000   50.00000000
   10.00000000   18.00000000   -1.00000000   50.00000000
   10.00000000   18.00000000   -1.00000000   50.00000000
   10.00000000   18.00000000   -1.00000000   50.00000000
   10.00000000   18.00000000   -1.00000000   50.00000000
   10.00000000   18.00000000   -1.00000000   50.00000000
   10.00000000   18.00000000   -1.00000000   50.00000000
   10.00000000   18.00000000   -1.00000000   50.00000000
   10.00000000   18.00000000   -1.00000000   50.00000000
   10.00000000   18.00000000   -1.00000000   50.00000000
   10.00000000   18.00000000   -1.00000000   50.00000000
   10.00000000   18.00000000   -1.00000000   50.00000000
   10.00000000   18.00000000   -1.00000000   50.00000000
   10.00000000   18.00000000   -1.00000000   50.00000000
   10.00000000   18.00000000   -1.00000000   50.00000000
   10.00000000   18.00000000   -1.00000000   50.00000000
   10.00000000   18.00000000   -1.00000000   50.00000000
   10.00000000   18.00000000   -1.00000000   50.00000000
   10.00000000   18.00000000   -1.00000000   50.00000000
   10.00000000   18.00000000   -1.00000000   50.00000000
   10.00000000   18.00000000   -1.00000000   50.00000000
   10.00000000   18.00000000   -1.00000000   50.00000000
   10.00000000   18.00000000   -1.00000000   50.00000000
   10.00000000   18.00000000   -1.00000000   50.00000000
   10.00000000   18.00000000   -1.00000000   50.00000000
   10.00000000   18.00000000   -1.00000000   50.00000000
   10.00000000   18.00000000   -1.00000000   50.00000000
   10.00000000   18.00000000   -1.00000000   50.00000000
   10.00000000   18.00000000   -1.00000000   50.00000000
   10.00000000   18.00000000   -1.00000000   50.00000000
   10.00000000   18.00000000   -1.00000000   50.00000000
   10.00000000   18.00000000   -1.00000000   50.00000000
   10.00000000   18.00000000   -1.00000000   50.00000000
   10.00000000   18.00000000   -1.00000000   50.00000000
   10.00000000   18.00000000   -1.00000000   50.00000000
   10.00000000   18.00000000   -1.00000000   50.00000000
   10.00000000   18.00000000   -1.00000000   50.00000000
   10.00000000   18.00000000   -1.00000000   50.00000000
   10.00000000   18.00000000   -1.00000000   50.00000000
   10.00000000   18.00000000   -1.00000000   50.00000000
   10.00000000   18.00000000   -1.00000000   50.00000000
   10.00000000   18.00000000   -1.00000000   50.00000000
   10.00000000   18.00000000   -1.00000000   50.00000000
   10.00000000   18.00000000   -1.00000000   50.00000000
   10.00000000   18.00000000   -1.00000000   50.00000000
   10.00000000   18.00000000   -1.00000000   50.00000000
   10.00000000   18.00000000   -1.00000000   50.00000000
   10.00000000   18.00000000   -1.00000000   50.00000000
   10.00000000   18.00000000   -1.00000000   50.00000000
   10.00000000   18.00000000   -1.00000000   50.00000000
   10.00000000   18.00000000   -1.00000000   50.00000000
   10.00000000   18.00000000   -1.00000000   50.00000000
   10.00000000   18.00000000   -1.00000000   50.00000000
   10.00000000   18.00000000   -1.00000000   50.00000000
   10.00000000   18.00000000   -1.00000000   50.00000000
   10.00000000   18.00000000   -1.00000000   50.00000000
   10.00000000   18.00000000   -1.00000000   50.00000000
   10.00000000   18.00000000   -1.00000000   50.00000000
   10.00000000   18.00000000   -1.00000000   50.00000000
   10.00000000   18.00000000   -1.00000000   50.00000000
   10.00000000   18.00000000   -1.00000000   50.00000000
   10.00000000   18.00000000   -1.00000000   50.00000000
   10.00000000   18.00000000   -1.00000000   50.00000000
   10.00000000   18.00000000   -1.00000000   50.00000000
   10.00000000   18.00000000   -1.00000000   50.00000000
   10.00000000   18.00000000   -1.00000000   50.00000000
   10.00000000   18.00000000   -1.00000000   50.00000000
   10.00000000   18.00000000   -1.00000000   50.00000000
   10.00000000   18.00000000   -1.00000000   50.00000000
   10.00000000   18.00000000   -1.00000000   50.00000000
   10.00000000   18.00000000   -1.00000000   50.00000000
   10.00000000   18.00000000   -1.00000000   50.00000000
   10.00000000   18.00000000   -1.00000000   50.00000000
   10.00000000   18.00000000   -1.00000000   50.00000000
   10.00000000   18.00000000   -1.00000000   50.00000000
   10.00000000   18.00000000   -1.00000000   50.00000000
   10.00000000   18.00000000   -1.00000000   50.00000000
   10.00000000   18.00000000   -1.00000000   50.00000000
   10.00000000   18.00000000   -1.00000000   50.00000000
   10.00000000   18.00000000   -1.00000000   50.00000000
   10.00000000   18.00000000   -1.00000000   50.00000000
   10.00000000   18.00000000   -1.00000000   50.00000000
   10.00000000   18.00000000   -1.00000000   50.00000000
   10.00000000   18.00000000   -1.00000000   50.00000000
   10.00000000   19.00000000   -1.00000000   50.00000000
   10.00000000   19.00000000   -1.00000000   50.00000000
   10.00000000   19.00000000   -1.00000000   50.00000000
   10.00000000   19.00000000   -1.00000000   50.00000000
   10.00000000   19.00000000   -1.00000000   50.00000000
   10.00000000   19.00000000   -1.00000000   50.00000000
   10.00000000   19.00000000   -1.00000000   50.00000000
   10.00000000   19.00000000   -1.00000000   50.00000000
   10.00000000   19.00000000   -1.00000000   50.00000000
   10.00000000   19.00000000   -1.00000000   50.00000000
   10.00000000   19.00000000   -1.00000000   50.00000000
   10.00000000   19.00000000   -1.00000000   50.00000000
   10.00000000   19.00000000   -1.00000000   50.00000000
   10.00000000   19.00000000   -1.00000000   50.00000000
   10.00000000   19.00000000   -1.00000000   50.00000000
   10.00000000   19.00000000   -1.00000000   50.00000000
   10.00000000   19.00000000   -1.00000000   50.00000000
   10.00000000   19.00000000   -1.00000000   50.00000000
   10.00000000   19.00000000   -1.00000000   50.00000000
   10.00000000   19.00000000   -1.00000000   50.00000000
   10.00000000   19.00000000   -1.00000000   50.00000000
   10.00000000   19.00000000   -1.00000000   50.00000000
   10.00000000   19.00000000   -1.00000000   50.00000000
   10.00000000   19.00000000   -1.00000000   50.00000000
   10.00000000   19.00000000   -1.00000000   50.00000000
   10.00000000   19.00000000   -1.00000000   50.00000000
   10.00000000   19.00000000   -1.00000000   50.00000000
   10.00000000   19.00000000   -1.00000000   50.00000000
   10.00000000   19.00000000   -1.00000000   50.00000000
   10.00000000   19.00000000   -1.00000000   50.00000000
   10.00000000   19.00000000   -1.00000000   50.00000000
   10.00000000   19.00000000   -1.00000000   50.00000000
   10.00000000   19.00000000   -1.00000000   50.00000000
   10.00000000   19.00000000   -1.00000000   50.00000000
   10.00000000   19.00000000   -1.00000000   50.00000000
   10.00000000   19.00000000   -1.00000000   50.00000000
   10.00000000   19.00000000   -1.00000000   50.00000000
   10.00000000   19.00000000   -1.00000000   50.00000000
   10.00000000   19.00000000   -1.00000000   50.00000000
   10.00000000   19.00000000   -1.00000000   50.00000000
   10.00000000   19.00000000   -1.00000000   50.00000000
   10.00000000   19.00000000   -1.00000000   50.00000000
   10.00000000   19.00000000   -1.00000000   50.00000000
   10.00000000   19.00000000   -1.00000000   50.00000000
   10.00000000   19.00000000   -1.00000000   50.00000000
   10.00000000   19.00000000   -1.00000000   50.00000000
   10.00000000   19.00000000   -1.00000000   50.00000000
   10.00000000   19.00000000   -1.00000000   50.00000000
   10.00000000   19.00000000   -1.00000000   50.00000000
   10.00000000   19.00000000   -1.00000000   50.00000000
   10.00000000   19.00000000   -1.00000000   50.00000000
   10.00000000   19.00000000   -1.00000000   50.00000000
   10.00000000   19.00000000   -1.00000000   50.00000000
   10.00000000   19.00000000   -1.00000000   50.00000000
   10.00000000   19.00000000   -1.00000000   50.00000000
   10.00000000   19.00000000   -1.00000000   50.00000000
   10.00000000   19.00000000   -1.00000000   50.00000000
   10.00000000   19.00000000   -1.00000000   50.00000000
   10.00000000   19.00000000   -1.00000000   50.00000000
   10.00000000   19.00000000   -1.00000000   50.00000000
   10.00000000   19.00000000   -1.00000000   50.00000000
   10.00000000   19.00000000   -1.00000000   50.00000000
   10.00000000   19.00000000   -1.00000000   50.00000000
   10.00000000   19.00000000   -1.00000000   50.00000000
   10.00000000   19.00000000   -1.00000000   50.00000000
   10.00000000   19.00000000   -1.00000000   50.00000000
   10.00000000   19.00000000   -1.00000000   50.00000000
   10.00000000   19.00000000   -1.00000000   50.00000000
   10.00000000   19.00000000   -1.00000000   50.00000000
   10.00000000   19.00000000   -1.00000000   50.00000000
   10.00000000   19.00000000   -1.00000000   50.00000000
   10.00000000   19.00000000   -1.00000000   50.00000000
   10.00000000   19.00000000  121.40299988   50.00000000
   10.00000000   19.00000000  106.16300201   50.00000000
   10.00000000   19.00000000   -1.00000000   50.00000000
   10.00000000   19.00000000  154.72500610   50.00000000
   10.00000000   19.00000000  153.48599243   50.00000000
   10.00000000   19.00000000   -1.00000000   50.00000000
   10.00000000   19.00000000   -1.00000000   50.00000000
   10.00000000   19.00000000   -1.00000000   50.00000000
   10.00000000   19.00000000   -1.00000000   50.00000000
   10.00000000   19.00000000   -1.00000000   50.00000000
   10.00000000   19.00000000   -1.00000000   50.00000000
   10.00000000   19.00000000   -1.00000000   50.00000000
   10.00000000   19.00000000   -1.00000000   50.00000000
   10.00000000   19.00000000   -1.00000000   50.00000000
   10.00000000   19.00000000   -1.00000000   50.00000000
   10.00000000   19.00000000   -1.00000000   50.00000000
   10.00000000   19.00000000   -1.00000000   50.00000000
   10.00000000   19.00000000   -1.00000000   50.00000000
   10.00000000   19.00000000   -1.00000000   50.00000000
   10.00000000   19.00000000   -1.00000000   50.00000000
   10.00000000   19.00000000   -1.00000000   50.00000000
   10.00000000   19.00000000   -1.00000000   50.00000000
   10.00000000   19.00000000   -1.00000000   50.00000000
   10.00000000   19.00000000   -1.00000000   50.00000000
   10.00000000   19.00000000   -1.00000000   50.00000000
   10.00000000   19.00000000   -1.00000000   50.00000000
   10.00000000   19.00000000   -1.00000000   50.00000000
   10.00000000   19.00000000   -1.00000000   50.00000000
   10.00000000   19.00000000   -1.00000000   50.00000000
   10.00000000   19.00000000   -1.00000000   50.00000000
   10.00000000   19.00000000   -1.00000000   50.00000000
   10.00000000   19.00000000   -1.00000000   50.00000000
   10.00000000   19.00000000   -1.00000000   50.00000000
   10.00000000   19.00000000          -NaN   50.00000000
   10.00000000   19.00000000   -1.00000000   50.00000000
   10.00000000   19.00000000   -1.00000000   50.00000000
   10.00000000   19.00000000   -1.00000000   50.00000000
   10.00000000   19.00000000  154.49600220   50.00000000
   10.00000000   19.00000000   80.49169922   50.00000000
   10.00000000   19.00000000  156.98899841   50.00000000
   10.00000000   19.00000000  154.02499390   50.00000000
   10.00000000   19.00000000  131.26100159   50.00000000
   10.00000000   19.00000000  109.48799896   50.00000000
   10.00000000   19.00000000  115.22100067   50.00000000
   10.00000000   19.00000000  111.12500000   50.00000000
   10.00000000   19.00000000  102.78399658   50.00000000
   10.00000000   19.00000000  112.07800293   50.00000000
   10.00000000   19.00000000   97.92120361   50.00000000
   10.00000000   19.00000000  159.66999817   50.00000000
   10.00000000   19.00000000  157.19500732   50.00000000
   10.00000000   19.00000000  143.48599243   50.00000000
   10.00000000   19.00000000  125.46900177   50.00000000
   10.00000000   19.00000000  129.57600403   50.00000000
   10.00000000   19.00000000  155.48100281   50.00000000
   10.00000000   19.00000000  199.88600159   50.00000000
   10.00000000   19.00000000   -1.00000000   50.00000000
   10.00000000   19.00000000   -1.00000000   50.00000000
   10.00000000   19.00000000   -1.00000000   50.00000000
   10.00000000   19.00000000   -1.00000000   50.00000000
   10.00000000   19.00000000   -1.00000000   50.00000000
   10.00000000   19.00000000   -1.00000000   50.00000000
   10.00000000   19.00000000   -1.00000000   50.00000000
   10.00000000   19.00000000   -1.00000000   50.00000000
   10.00000000   19.00000000   -1.00000000   50.00000000
   10.00000000   19.00000000   -1.00000000   50.00000000
   10.00000000   19.00000000   -1.00000000   50.00000000
   10.00000000   19.00000000   -1.00000000   50.00000000
   10.00000000   19.00000000   -1.00000000   50.00000000
   10.00000000   19.00000000   -1.00000000   50.00000000
   10.00000000   19.00000000   -1.00000000   50.00000000
   10.00000000   19.00000000   -1.00000000   50.00000000
   10.00000000   19.00000000   -1.00000000   50.00000000
   10.00000000   19.00000000   -1.00000000   50.00000000
   10.00000000   19.00000000   -1.00000000   50.00000000
   10.00000000   19.00000000   -1.00000000   50.00000000
   10.00000000   19.00000000   -1.00000000   50.00000000
   10.00000000   19.00000000   -1.00000000   50.00000000
   10.00000000   19.00000000   -1.00000000   50.00000000
   10.00000000   19.00000000   -1.00000000   50.00000000
   10.00000000   19.00000000   -1.00000000   50.00000000
   10.00000000   19.00000000   -1.00000000   50.00000000
   10.00000000   19.00000000   -1.00000000   50.00000000
   10.00000000   19.00000000   -1.00000000   50.00000000
   10.00000000   19.00000000   -1.00000000   50.00000000
   10.00000000   19.00000000   -1.00000000   50.00000000
   10.00000000   19.00000000   -1.00000000   50.00000000
   10.00000000   19.00000000   -1.00000000   50.00000000
   10.00000000   19.00000000   -1.00000000   50.00000000
   10.00000000   19.00000000   -1.00000000   50.00000000
   10.00000000   19.00000000   -1.00000000   50.00000000
   10.00000000   19.00000000   -1.00000000   50.00000000
   10.00000000   19.00000000   -1.00000000   50.00000000
   10.00000000   19.00000000   -1.00000000   50.00000000
   10.00000000   19.00000000   -1.00000000   50.00000000
   10.00000000   19.00000000   -1.00000000   50.00000000
   10.00000000   19.00000000   -1.00000000   50.00000000
   10.00000000   19.00000000   -1.00000000   50.00000000
   10.00000000   19.00000000   -1.00000000   50.00000000
   10.00000000   19.00000000   -1.00000000   50.00000000
   10.00000000   19.00000000   -1.00000000   50.00000000
   10.00000000   19.00000000   -1.00000000   50.00000000
   10.00000000   19.00000000   -1.00000000   50.00000000
   10.00000000   19.00000000   -1.00000000   50.00000000
   10.00000000   19.00000000   -1.00000000   50.00000000
   10.00000000   19.00000000   -1.00000000   50.00000000
   10.00000000   19.00000000   -1.00000000   50.00000000
   10.00000000   19.00000000   -1.00000000   50.00000000
   10.00000000   19.00000000   -1.00000000   50.00000000
   10.00000000   19.00000000   -1.00000000   50.00000000
   10.00000000   19.00000000   -1.00000000   50.00000000
   10.00000000   19.00000000   -1.00000000   50.00000000
   10.00000000   19.00000000   -1.00000000   50.00000000
   10.00000000   19.00000000   -1.00000000   50.00000000
