    HOUR (UT)     SKY TESTER    SUN TESTER
   12.81472206    1.73399997    0.01900000
   12.81500053    1.77300000    0.01900000
   12.81555557    1.90799999    0.05700000
   12.81611156    2.10100007    0.09600000
   12.81666660    2.29399991    0.15400000
   12.81722260    2.48600006    0.17299999
   12.81777763    2.66000009    0.21200000
   12.81833363    2.93000007    0.23100001
   12.81888866    3.35400009    0.25000000
   12.81944466    3.54699993    0.30800000
   12.81999969    3.73900008    0.36600000
   12.82055569    3.97099996    0.42399999
   12.82083321    4.24100018    0.48100001
   12.82138920    4.70300007    0.57800001
   12.82194424    4.91499996    0.55900002
   12.82250023    4.91499996    0.53899997
   12.82305527    4.91499996    0.53899997
   12.82361126    4.91499996    0.61600000
   12.82416630    4.91499996    1.38699996
   12.82472229    4.91499996    1.69599998
   12.82527733    4.91499996    1.81200004
   12.82583332    4.91499996    1.85000002
   12.82638836    4.91499996    1.77300000
   12.82694435    4.91499996    1.73399997
   12.82750034    4.91499996    1.63800001
   12.82805538    4.91499996    1.54200006
   12.82833290    4.91499996    1.63800001
   12.82888889    4.91499996    1.88900006
   12.82972240    4.91499996    2.04299998
   12.83083344    4.91499996    1.83099997
   12.83111095    4.91499996    1.65699995
   12.83222198    4.91499996    1.65699995
   12.83333302    4.91499996    2.00399995
   12.83416653    4.91499996    1.86899996
   12.83527756    4.91499996    1.38699996
   12.83611107    4.91499996    1.02100003
   12.83722210    4.91499996    0.86699998
   12.83805561    4.91499996    1.03999996
   12.83916664    4.91499996    1.03999996
   12.84027767    4.91499996    0.86699998
   12.84111118    4.91499996    1.15600002
   12.84222221    4.91499996    1.13699996
   12.84333324    4.91499996    0.92500001
   12.84416676    4.91499996    0.77100003
   12.84527779    4.91499996    0.75099999
   12.84638882    4.91499996    0.77100003
   12.84722233    4.91499996    1.27199996
   12.84833336    4.91499996    1.65699995
   12.84916592    4.91499996    1.71500003
   12.85027790    4.91499996    1.67700005
   12.85138893    4.91499996    1.81200004
   12.85222244    4.91499996    1.81200004
   12.85333347    4.91499996    1.90799999
   12.85444450    4.91499996    1.88900006
   12.85527802    4.91499996    1.73399997
   12.85638905    4.91499996    1.73399997
   12.85722256    4.91499996    2.21600008
   12.85833359    4.91499996    2.33200002
   12.85944462    4.91499996    2.31299996
   12.86027813    4.91499996    2.33200002
   12.86138916    4.91499996    2.52500010
   12.86250019    4.91499996    2.52500010
   12.86333370    4.91499996    2.50600004
   12.86444473    4.91499996    2.52500010
   12.86527824    4.91499996    2.52500010
   12.86638927    4.91499996    2.50600004
   12.86750031    4.91499996    2.52500010
   12.86833382    4.91499996    2.58299994
   12.86944485    4.91499996    2.54399991
   12.87027836    4.91499996    2.56299996
   12.87138939    4.91499996    2.56299996
   12.87250042    4.91499996    2.56299996
   12.87333393    4.91499996    2.56299996
   12.87444496    4.91499996    2.48600006
   12.87555599    4.91499996    2.40899992
   12.87638855    4.91499996    2.35100007
   12.87750053    4.91499996    2.25500011
   12.87833309    4.91499996    2.08100009
   12.87944412    4.91499996    2.23600006
   12.88055611    4.91499996    2.37100005
   12.88138866    4.91499996    2.56299996
   12.88249969    4.91499996    2.29399991
   12.88361073    4.91499996    1.69599998
   12.88444424    4.91499996    1.61899996
   12.88555527    4.91499996    1.50300002
   12.88638878    4.91499996    1.44500005
   12.88749981    4.91499996    1.88900006
   12.88861084    4.91499996    2.48600006
   12.88944435    4.91499996    2.54399991
   12.89055538    4.91499996    2.58299994
   12.89166641    4.91499996    2.64000010
   12.89249992    4.91499996    2.62100005
   12.89361095    4.91499996    2.35100007
   12.89444447    4.91499996    2.15899992
   12.89555550    4.91499996    2.35100007
   12.89666653    4.91499996    2.04299998
   12.89750004    4.91499996    1.86899996
   12.89861107    4.91499996    1.52199996
   12.89944458    4.91499996    1.38699996
   12.90055561    4.91499996    1.54200006
   12.90166664    4.91499996    1.40699995
   12.90249920    4.91499996    1.40699995
   12.90361118    4.91499996    1.30999994
   12.90444374    4.91499996    1.23300004
   12.90555477    4.91499996    1.75399995
   12.90666676    4.91499996    1.69599998
   12.90749931    4.91499996    1.30999994
   12.90861034    4.91499996    1.07900000
   12.90944386    4.91499996    1.03999996
   12.91055489    4.91499996    1.09800005
   12.91166592    4.91499996    0.90600002
   12.91249943    4.91499996    0.79000002
   12.91361046    4.91499996    0.55900002
   12.91472149    4.91499996    0.44299999
   12.91555500    4.91499996    0.36600000
   12.91666698    4.91499996    0.30800000
   12.91750050    4.91499996    0.25000000
   12.91861153    4.91499996    0.23100001
   12.91972256    4.91499996    0.23100001
   12.92055607    4.91499996    0.21200000
   12.92166710    4.91499996    0.21200000
   12.92277813    4.91499996    0.25000000
   12.92361164    4.91499996    0.30800000
   12.92472267    4.91499996    0.23100001
   12.92555618    4.91499996    0.13400000
   12.92666721    4.91499996    0.09600000
   12.92777824    4.91499996    0.09600000
   12.92861176    4.91499996    0.09600000
   12.92972279    4.91499996    0.11500000
   12.93083382    4.91499996    0.15400000
   12.93166733    4.91499996    0.23100001
   12.93277836    4.91499996    0.40400001
   12.93361092    4.91499996    0.53899997
   12.93472195    4.91499996    0.57800001
   12.93583298    4.91499996    0.48100001
   12.93666649    4.91499996    0.28900000
   12.93777752    4.91499996    0.17299999
   12.93861103    4.91499996    0.11500000
   12.93972206    4.91499996    0.09600000
   12.94083309    4.91499996    0.09600000
   12.94166660    4.91499996    0.09600000
   12.94277763    4.91499996    0.09600000
   12.94388866    4.91499996    0.13400000
   12.94472218    4.91499996    0.13400000
   12.94583321    4.91499996    0.13400000
   12.94666672    4.91499996    0.15400000
   12.94777775    4.91499996    0.11500000
   12.94861126    4.91499996    0.11500000
   12.94972229    4.91499996    0.11500000
   12.95083332    4.91499996    0.13400000
   12.95166683    4.91499996    0.15400000
   12.95277786    4.91499996    0.23100001
   12.95388889    4.91499996    0.34599999
   12.95472240    4.91499996    0.34599999
   12.95583344    4.91499996    0.34599999
   12.95666695    4.91499996    0.30800000
   12.95777798    4.91499996    0.25000000
   12.95861053    4.91499996    0.23100001
   12.95972157    4.91499996    0.19200000
   12.96083355    4.91499996    0.21200000
   12.96166611    4.91499996    0.23100001
   12.96277714    4.91499996    0.25000000
   12.96361065    4.91499996    0.28900000
   12.96472168    4.91499996    0.36600000
   12.96583271    4.91499996    0.50099999
   12.96666622    4.91499996    0.73199999
   12.96777725    4.91499996    0.79000002
   12.96888828    4.91499996    0.86699998
   12.96972179    4.91499996    0.79000002
   12.97083282    4.91499996    0.63599998
   12.97166634    4.91499996    0.86699998
   12.97277737    4.91499996    1.46500003
   12.97388840    4.91499996    2.02399993
   12.97472191    4.91499996    2.25500011
   12.97583294    4.91499996    2.31299996
   12.97694397    4.91499996    2.29399991
   12.97777748    4.91499996    2.25500011
   12.97888851    4.91499996    2.21600008
   12.97972202    4.91499996    2.25500011
   12.98083305    4.91499996    2.21600008
   12.98194408    4.91499996    2.17799997
   12.98277760    4.91499996    2.21600008
   12.98388958    4.91499996    2.31299996
   12.98472214    4.91499996    2.29399991
   12.98583317    4.91499996    2.37100005
   12.98694515    4.91499996    2.39000010
   12.98777771    4.91499996    2.35100007
   12.98888874    4.91499996    2.35100007
   12.99000072    4.91499996    2.39000010
   12.99083328    4.91499996    2.31299996
   12.99194431    4.91499996    2.17799997
   12.99277782    4.91499996    2.19700003
   12.99388885    4.91499996    2.10100007
   12.99499989    4.91499996    2.11999989
   12.99583340    4.91499996    2.10100007
   12.99694443    4.91499996    2.13899994
   12.99805546    4.91499996    2.04299998
   12.99888897    4.91499996    1.90799999
   13.00000000    4.91499996    1.94700003
   13.00083351    4.91499996    1.85000002
   13.00194454    4.91499996    2.19700003
   13.00277805    4.91499996    2.27399993
   13.00388908    4.91499996    1.88900006
   13.00500011    4.91499996    1.23300004
   13.00583363    4.91499996    0.92500001
   13.00694466    4.91499996    0.63599998
   13.00777817    4.91499996    0.92500001
   13.00888920    4.91499996    1.07900000
   13.00972176    4.91499996    1.09800005
   13.01083374    4.91499996    1.60000002
   13.01194477    4.91499996    1.61899996
   13.01277733    4.91499996    1.69599998
   13.01388931    4.91499996    1.23300004
   13.01472187    4.91499996    1.17499995
   13.01583290    4.91499996    1.23300004
   13.01694393    4.91499996    0.92500001
   13.01777744    4.91499996    0.69300002
   13.01888847    4.91499996    0.50099999
   13.01999950    4.91499996    0.42399999
   13.02083302    4.91499996    0.36600000
   13.02194405    4.91499996    0.23100001
   13.02277756    4.91499996    0.15400000
   13.02388859    4.91499996    0.11500000
   13.02499962    4.91499996    0.09600000
   13.02583313    4.91499996    0.07700000
   13.02694416    4.91499996    0.07700000
   13.02805519    4.91499996    0.05700000
   13.02888870    4.91499996    0.05700000
   13.02999973    4.91499996    0.03800000
   13.03083324    4.91499996    0.05700000
   13.03194427    4.91499996    0.05700000
   13.03305531    4.91499996    0.03800000
   13.03388977    4.91499996    0.03800000
   13.03500080    4.91499996    0.05700000
   13.03583336    4.91499996    0.07700000
   13.03694534    4.91499996    0.09600000
   13.03777790    4.91499996    0.11500000
   13.03888893    4.91499996    0.17299999
   13.04000092    4.91499996    0.25000000
   13.04083347    4.91499996    0.32699999
   13.04194450    4.91499996    0.44299999
   13.04305553    4.91499996    0.67400002
   13.04388905    4.91499996    0.67400002
   13.04500008    4.91499996    0.59700000
   13.04611111    4.91499996    0.46200001
   13.04694462    4.91499996    0.38499999
   13.04805565    4.91499996    0.26899999
   13.04888916    4.91499996    0.23100001
   13.05000019    4.91499996    0.23100001
   13.05111122    4.91499996    0.21200000
   13.05194473    4.91499996    0.19200000
   13.05305576    4.91499996    0.15400000
   13.05388927    4.91499996    0.17299999
   13.05500031    4.91499996    0.23100001
   13.05611134    4.91499996    0.26899999
   13.05694485    4.91499996    0.25000000
   13.05805588    4.91499996    0.30800000
   13.05888939    4.91499996    0.30800000
   13.06000042    4.91499996    0.30800000
   13.06111145    4.91499996    0.32699999
   13.06194496    4.91499996    0.32699999
   13.06305599    4.91499996    0.25000000
   13.06416702    4.91499996    0.19200000
   13.06500053    4.91499996    0.17299999
   13.06611156    4.91499996    0.15400000
   13.06694412    4.91499996    0.15400000
   13.06805515    4.91499996    0.09600000
   13.06916618    4.91499996    0.07700000
   13.06999969    4.91499996    0.03800000
   13.07111073    4.91499996    0.03800000
   13.07194424    4.91499996    0.03800000
   13.07305527    4.91499996    0.03800000
   13.07416630    4.91499996    0.05700000
   13.07499981    4.91499996    0.11500000
   13.07611084    4.91499996    0.09600000
   13.07694435    4.91499996    0.07700000
   13.07805538    4.91499996    0.03800000
   13.07916641    4.91499996    0.03800000
   13.07999992    4.91499996    0.03800000
   13.08111095    4.91499996    0.03800000
   13.08222198    4.91499996    0.01900000
   13.08305550    4.91499996    0.03800000
   13.08416653    4.91499996    0.01900000
   13.08500004    4.91499996    0.03800000
   13.08611107    4.91499996    0.03800000
   13.08722210    4.91499996    0.05700000
   13.08805561    4.91499996    0.05700000
   13.08916664    4.91499996    0.07700000
   13.09027767    4.91499996    0.07700000
   13.09111118    4.91499996    0.09600000
   13.09222221    4.91499996    0.17299999
   13.09305477    4.91499996    0.32699999
   13.09416676    4.91499996    0.44299999
   13.09527779    4.91499996    0.44299999
   13.09611034    4.91499996    0.28900000
   13.09722233    4.91499996    0.26899999
   13.09833336    4.91499996    0.32699999
   13.09916592    4.91499996    0.79000002
   13.10027790    4.91499996    1.11800003
   13.10111141    4.91499996    1.25300002
   13.10222244    4.91499996    1.40699995
   13.10333347    4.91499996    1.29100001
   13.10416698    4.91499996    1.69599998
   13.10527802    4.91499996    1.75399995
   13.10638905    4.91499996    1.79200006
   13.10722256    4.91499996    1.77300000
   13.10833359    4.91499996    1.81200004
   13.10916710    4.91499996    1.34899998
   13.11027813    4.91499996    1.15600002
   13.11111164    4.91499996    1.42600000
   13.11222267    4.91499996    1.42600000
   13.11333370    4.91499996    1.27199996
   13.11416721    4.91499996    1.00199997
   13.11527824    4.91499996    1.02100003
   13.11638927    4.91499996    1.11800003
   13.11722279    4.91499996    0.67400002
   13.11833382    4.91499996    0.23100001
   13.11944485    4.91499996    0.15400000
   13.12027836    4.91499996    0.09600000
   13.12138939    4.91499996    0.09600000
   13.12222195    4.91499996    0.11500000
   13.12333393    4.91499996    0.23100001
   13.12444496    4.91499996    0.38499999
   13.12527752    4.91499996    0.48100001
   13.12638855    4.91499996    0.59700000
   13.12750053    4.91499996    0.69300002
   13.12833309    4.91499996    0.77100003
   13.12944412    4.91499996    0.86699998
   13.13027763    4.91499996    1.00199997
   13.13138866    4.91499996    1.07900000
   13.13249969    4.91499996    1.07900000
   13.13333321    4.91499996    0.96300000
   13.13444424    4.91499996    0.59700000
   13.13555527    4.91499996    0.53899997
   13.13638878    4.91499996    0.44299999
   13.13749981    4.91499996    0.34599999
   13.13833332    4.91499996    0.48100001
   13.13944435    4.91499996    0.46200001
   13.14027786    4.91499996    0.57800001
   13.14138889    4.91499996    0.59700000
   13.14249992    4.91499996    0.44299999
   13.14333344    4.91499996    0.21200000
   13.14444447    4.91499996    0.15400000
   13.14555550    4.91499996    0.13400000
   13.14638901    4.91499996    0.09600000
   13.14750004    4.91499996    0.07700000
   13.14861107    4.91499996    0.03800000
   13.14944458    4.91499996    0.01900000
   13.15249920    4.91499996    0.01900000
   13.17250061    4.91499996    0.01900000
   13.17361164    4.91499996    0.01900000
   13.17444515    4.91499996    0.01900000
   13.17555618    4.91499996    0.03800000
   13.17638874    4.91499996    0.07700000
   13.17750072    4.91499996    0.11500000
   13.17861176    4.91499996    0.15400000
   13.17944431    4.91499996    0.17299999
   13.18055630    4.91499996    0.19200000
   13.18138885    4.91499996    0.23100001
   13.18249989    4.91499996    0.38499999
   13.18361092    4.91499996    0.69300002
   13.18444443    4.91499996    0.77100003
   13.18555546    4.91499996    0.57800001
   13.18666649    4.91499996    0.51999998
   13.18750000    4.91499996    0.46200001
   13.18861103    4.91499996    0.34599999
   13.18944454    4.91499996    0.28900000
   13.19055557    4.91499996    0.25000000
   13.19166660    4.91499996    0.21200000
   13.19250011    4.91499996    0.21200000
   13.19361115    4.91499996    0.34599999
   13.19444466    4.91499996    0.53899997
   13.19555569    4.91499996    0.57800001
   13.19666672    4.91499996    0.46200001
   13.19750023    4.91499996    0.48100001
   13.19861126    4.91499996    0.53899997
   13.19944477    4.91499996    0.42399999
   13.20055580    4.91499996    0.32699999
   13.20166683    4.91499996    0.21200000
   13.20249939    4.91499996    0.17299999
   13.20361137    4.91499996    0.15400000
   13.20444393    4.91499996    0.11500000
   13.20555496    4.91499996    0.05700000
   13.20666695    4.91499996    0.05700000
   13.20749950    4.91499996    0.05700000
   13.20861053    4.91499996    0.05700000
   13.20944405    4.91499996    0.07700000
   13.21055508    4.91499996    0.11500000
   13.21166611    4.91499996    0.15400000
   13.21249962    4.91499996    0.28900000
   13.21361065    4.91499996    0.32699999
   13.21472168    4.91499996    0.30800000
   13.21555519    4.91499996    0.36600000
   13.21666622    4.91499996    0.40400001
   13.21749973    4.91499996    0.32699999
   13.21861076    4.91499996    0.25000000
   13.21972179    4.91499996    0.21200000
   13.22055531    4.91499996    0.25000000
   13.22166634    4.91499996    0.19200000
   13.22277737    4.91499996    0.15400000
   13.22361088    4.91499996    0.09600000
   13.22472191    4.91499996    0.05700000
   13.22583294    4.91499996    0.01900000
   13.22666645    4.91499996    0.01900000
   13.24472237    4.91499996    0.01900000
   13.24583340    4.91499996    0.03800000
   13.24666691    4.91499996    0.03800000
   13.24777794    4.91499996    0.05700000
   13.24861145    4.91499996    0.09600000
   13.24972248    4.91499996    0.11500000
   13.25083351    4.91499996    0.11500000
   13.25166702    4.91499996    0.05700000
   13.25277805    4.91499996    0.01900000
   13.26166630    4.91499996    0.01900000
   13.26277733    4.91499996    0.01900000
   13.26388931    4.91499996    0.01900000
   13.26472187    4.91499996    0.03800000
   13.26583290    4.91499996    0.05700000
   13.26666641    4.91499996    0.05700000
   13.26777744    4.91499996    0.07700000
   13.26888847    4.91499996    0.05700000
   13.26972198    4.91499996    0.05700000
   13.27083302    4.91499996    0.05700000
   13.27194405    4.91499996    0.07700000
   13.27277756    4.91499996    0.09600000
   13.27388859    4.91499996    0.21200000
   13.27499962    4.91499996    0.32699999
   13.27583313    4.91499996    0.30800000
   13.27694416    4.91499996    0.44299999
   13.27777767    4.91499996    0.48100001
   13.27888870    4.91499996    0.80900002
   13.27999973    4.91499996    0.61600000
   13.28083324    4.91499996    0.65499997
   13.28194427    4.91499996    0.90600002
   13.28305531    4.91499996    0.75099999
   13.28388977    4.91499996    0.38499999
   13.28500080    4.91499996    0.25000000
   13.28583336    4.91499996    0.21200000
   13.28694534    4.91499996    0.15400000
   13.28777790    4.91499996    0.09600000
   13.28888893    4.91499996    0.07700000
   13.29000092    4.91499996    0.07700000
   13.29083347    4.91499996    0.07700000
   13.29194450    4.91499996    0.07700000
   13.29277802    4.91499996    0.07700000
   13.29388905    4.91499996    0.15400000
   13.29500008    4.91499996    0.25000000
   13.29583359    4.91499996    0.38499999
   13.29694462    4.91499996    0.71300000
   13.29805565    4.91499996    1.19500005
   13.29888916    4.91499996    2.10100007
   13.30000019    4.91499996    2.17799997
   13.30083370    4.91499996    1.88900006
   13.30194473    4.91499996    1.75399995
   13.30305576    4.91499996    1.63800001
   13.30388927    4.91499996    1.56099999
   13.30500031    4.91499996    1.42600000
   13.30611134    4.91499996    1.19500005
   13.30694485    4.91499996    1.19500005
   13.30805588    4.91499996    0.94400001
   13.30888939    4.91499996    0.71300000
   13.31000042    4.91499996    0.92500001
   13.31111145    4.91499996    0.90600002
   13.31194496    4.91499996    1.09800005
   13.31305599    4.91499996    1.17499995
   13.31416702    4.91499996    1.07900000
   13.31500053    4.91499996    1.02100003
   13.31611156    4.91499996    1.38699996
   13.31694412    4.91499996    1.11800003
   13.31805515    4.91499996    0.69300002
   13.31916618    4.91499996    0.55900002
   13.31999969    4.91499996    0.80900002
   13.32111073    4.91499996    0.84799999
   13.32194424    4.91499996    0.59700000
   13.32305527    4.91499996    0.26899999
   13.32416630    4.91499996    0.15400000
   13.32499981    4.91499996    0.09600000
   13.32611084    4.91499996    0.09600000
   13.32694435    4.91499996    0.09600000
   13.32805538    4.91499996    0.11500000
   13.32916641    4.91499996    0.17299999
   13.32999992    4.91499996    0.15400000
   13.33111095    4.91499996    0.09600000
   13.33222198    4.91499996    0.07700000
   13.33305550    4.91499996    0.05700000
   13.33416653    4.91499996    0.09600000
   13.33527756    4.91499996    0.15400000
   13.33611107    4.91499996    0.25000000
   13.33722210    4.91499996    0.32699999
   13.33833313    4.91499996    0.55900002
   13.33916664    4.91499996    0.77100003
   13.34027767    4.91499996    0.69300002
   13.34111118    4.91499996    0.63599998
   13.34222221    4.91499996    0.55900002
   13.34305477    4.91499996    0.46200001
   13.34416676    4.91499996    0.40400001
   13.34499931    4.91499996    0.46200001
   13.34611034    4.91499996    0.46200001
   13.34722233    4.91499996    0.53899997
   13.34805489    4.91499996    0.46200001
   13.34916592    4.91499996    0.32699999
   13.35027790    4.91499996    0.40400001
   13.35111141    4.91499996    0.34599999
   13.35222244    4.91499996    0.23100001
   13.35305595    4.91499996    0.17299999
   13.35416698    4.91499996    0.15400000
   13.35527802    4.91499996    0.15400000
   13.35611153    4.91499996    0.15400000
   13.35722256    4.91499996    0.11500000
   13.35833359    4.91499996    0.15400000
   13.35916710    4.91499996    0.11500000
   13.36027813    4.91499996    0.07700000
   13.36111164    4.91499996    0.03800000
   13.36222267    4.91499996    0.01900000
   13.40138817    4.91499996    0.01900000
   13.40249920    4.91499996    0.03800000
   13.40361118    4.91499996    0.03800000
   13.40444374    4.91499996    0.05700000
   13.40555477    4.91499996    0.03800000
   13.40638828    4.91499996    0.01900000
   13.40749931    4.91499996    0.01900000
   13.40944386    4.91499996    0.01900000
   13.41138840    4.91499996    0.01900000
   13.41249943    4.91499996    0.03800000
   13.41361046    4.91499996    0.05700000
   13.41444397    4.91499996    0.05700000
   13.41555500    4.91499996    0.05700000
   13.41666698    4.91499996    0.03800000
   13.41750050    4.91499996    0.03800000
   13.41861153    4.91499996    0.01900000
   13.41944504    4.91499996    0.01900000
   13.42750072    4.91499996    0.01900000
   13.42861176    4.91499996    0.01900000
   13.42944431    4.91499996    0.01900000
   13.43055630    4.91499996    0.01900000
   13.44250011    4.91499996    0.01900000
   13.44333363    4.91499996    0.01900000
   13.44444466    4.91499996    0.01900000
   13.44555569    4.91499996    0.05700000
   13.44638920    4.91499996    0.09600000
   13.44750023    4.91499996    0.17299999
   13.44833374    4.91499996    0.25000000
   13.44944477    4.91499996    0.53899997
   13.45055580    4.91499996    0.32699999
   13.45138836    4.91499996    0.21200000
   13.45249939    4.91499996    0.11500000
   13.45361137    4.91499996    0.07700000
   13.45444393    4.91499996    0.05700000
   13.45555496    4.91499996    0.05700000
   13.45638847    4.91499996    0.05700000
   13.45749950    4.91499996    0.07700000
   13.45861053    4.91499996    0.07700000
   13.45944405    4.91499996    0.03800000
   13.46055508    4.91499996    0.03800000
   13.46138859    4.91499996    0.01900000
   13.46555519    4.91499996    0.01900000
   13.48638916    4.91499996    0.01900000
   13.48750019    4.91499996    0.05700000
   13.48833370    4.91499996    0.09600000
   13.48944473    4.91499996    0.30800000
   13.49055576    4.91499996    0.48100001
   13.49138927    4.91499996    0.65499997
   13.49250031    4.91499996    0.38499999
   13.49333382    4.91499996    0.32699999
   13.49444485    4.91499996    0.23100001
   13.49555588    4.91499996    0.15400000
   13.49666691    4.91499996    0.11500000
   13.49750042    4.91499996    0.09600000
   13.49861145    4.91499996    0.09600000
   13.49944496    4.91499996    0.13400000
   13.50055599    4.91499996    0.15400000
   13.50166702    4.91499996    0.13400000
   13.50249958    4.91499996    0.15400000
   13.50361156    4.91499996    0.17299999
   13.50444412    4.91499996    0.48100001
   13.50555515    4.91499996    0.67400002
   13.50666714    4.91499996    0.57800001
   13.50749969    4.91499996    0.32699999
   13.50861073    4.91499996    0.28900000
   13.50944424    4.91499996    0.32699999
   13.51055527    4.91499996    0.38499999
   13.51138878    4.91499996    0.40400001
   13.51249981    4.91499996    0.46200001
   13.51361084    4.91499996    0.36600000
   13.51444435    4.91499996    0.30800000
   13.51555538    4.91499996    0.25000000
   13.51638889    4.91499996    0.17299999
   13.51749992    4.91499996    0.21200000
   13.51861095    4.91499996    0.23100001
   13.51944447    4.91499996    0.80900002
   13.52055550    4.91499996    0.53899997
   13.52138901    4.91499996    0.38499999
   13.52250004    4.91499996    0.30800000
   13.52361107    4.91499996    0.48100001
   13.52444458    4.91499996    0.86699998
   13.52555561    4.91499996    1.07900000
   13.52666664    4.91499996    1.30999994
   13.52750015    4.91499996    1.40699995
   13.52861118    4.91499996    1.42600000
   13.52944374    4.91499996    1.38699996
   13.53055573    4.91499996    1.23300004
   13.53166676    4.91499996    0.73199999
   13.53249931    4.91499996    0.79000002
   13.53361130    4.91499996    0.77100003
   13.53444481    4.91499996    0.53899997
   13.53555584    4.91499996    0.53899997
   13.53666687    4.91499996    0.36600000
   13.53750038    4.91499996    0.26899999
   13.53861141    4.91499996    0.32699999
   13.53972244    4.91499996    0.30800000
   13.54055595    4.91499996    0.30800000
   13.54166698    4.91499996    0.28900000
   13.54250050    4.91499996    0.40400001
   13.54361153    4.91499996    0.46200001
   13.54444504    4.91499996    0.46200001
   13.54555607    4.91499996    0.50099999
   13.54666710    4.91499996    0.40400001
   13.54750061    4.91499996    0.46200001
   13.54861164    4.91499996    0.53899997
   13.54944515    4.91499996    0.88599998
   13.55055618    4.91499996    0.90600002
   13.55166721    4.91499996    0.77100003
   13.55249977    4.91499996    0.75099999
   13.55361176    4.91499996    0.71300000
   13.55472279    4.91499996    1.00199997
   13.55555534    4.91499996    1.02100003
   13.55666733    4.91499996    1.13699996
   13.55749989    4.91499996    0.77100003
   13.55861092    4.91499996    0.63599998
   13.55972195    4.91499996    0.55900002
   13.56055546    4.91499996    0.51999998
   13.56166649    4.91499996    0.53899997
   13.56250000    4.91499996    0.63599998
   13.56361103    4.91499996    0.65499997
   13.56472206    4.91499996    0.48100001
   13.56555557    4.91499996    0.32699999
   13.56666660    4.91499996    0.23100001
   13.56750011    4.91499996    0.17299999
   13.56861115    4.91499996    0.21200000
   13.56972218    4.91499996    0.32699999
   13.57055569    4.91499996    0.46200001
   13.57166672    4.91499996    0.55900002
   13.57250023    4.91499996    0.53899997
   13.57361126    4.91499996    0.51999998
   13.57472229    4.91499996    0.53899997
   13.57555580    4.91499996    0.61600000
   13.57666683    4.91499996    0.67400002
   13.57777786    4.91499996    0.61600000
   13.57861137    4.91499996    0.73199999
   13.57972240    4.91499996    0.79000002
   13.58055592    4.91499996    0.80900002
   13.58166695    4.91499996    0.80900002
   13.58277798    4.91499996    0.84799999
   13.58361053    4.91499996    0.73199999
   13.58472157    4.91499996    0.67400002
   13.58583260    4.91499996    0.57800001
   13.58666611    4.91499996    0.71300000
   13.58777714    4.91499996    0.77100003
   13.58861065    4.91499996    0.79000002
   13.58972168    4.91499996    0.69300002
   13.59055519    4.91499996    0.73199999
   13.59166622    4.91499996    0.77100003
   13.59277725    4.91499996    0.77100003
   13.59388828    4.91499996    0.73199999
   13.59472179    4.91499996    0.65499997
   13.59583282    4.91499996    0.55900002
   13.59666634    4.91499996    0.46200001
   13.59777737    4.91499996    0.42399999
   13.59888840    4.91499996    0.36600000
   13.59972191    4.91499996    0.32699999
   13.60083389    4.91499996    0.30800000
   13.60166740    4.91499996    0.30800000
   13.60277843    4.91499996    0.26899999
   13.60388947    4.91499996    0.36600000
   13.60472298    4.91499996    0.71300000
   13.60583401    4.91499996    0.73199999
   13.60666752    4.91499996    0.75099999
   13.60777855    4.91499996    1.19500005
   13.60888958    4.91499996    1.42600000
   13.60972214    4.91499996    1.81200004
   13.61083412    4.91499996    2.00399995
   13.61166668    4.91499996    1.94700003
   13.61277771    4.91499996    2.00399995
   13.61361122    4.91499996    2.13899994
   13.61472225    4.91499996    2.13899994
   13.61583328    4.91499996    2.08100009
   13.61666679    4.91499996    2.15899992
   13.61777782    4.91499996    2.02399993
   13.61861134    4.91499996    1.94700003
   13.61972237    4.91499996    1.77300000
   13.62083340    4.91499996    1.73399997
   13.62166691    4.91499996    1.86899996
   13.62277794    4.91499996    2.02399993
   13.62361145    4.91499996    1.85000002
   13.62472248    4.91499996    1.60000002
   13.62583351    4.91499996    1.71500003
   13.62666702    4.91499996    1.77300000
   13.62777805    4.91499996    1.81200004
   13.62888908    4.91499996    1.77300000
   13.62972260    4.91499996    1.71500003
   13.63083363    4.91499996    1.69599998
   13.63166714    4.91499996    1.63800001
   13.63277817    4.91499996    1.56099999
   13.63388920    4.91499996    1.50300002
   13.63472176    4.91499996    1.48399997
   13.63583279    4.91499996    1.48399997
   13.63694477    4.91499996    1.54200006
   13.63777733    4.91499996    1.38699996
   13.63888836    4.91499996    1.23300004
   13.63972187    4.91499996    1.23300004
   13.64083290    4.91499996    1.29100001
   13.64194393    4.91499996    1.33000004
   13.64277744    4.91499996    1.44500005
   13.64388847    4.91499996    1.40699995
   13.64472198    4.91499996    1.07900000
   13.64583302    4.91499996    1.15600002
   13.64694405    4.91499996    1.03999996
   13.64777756    4.91499996    1.07900000
   13.64888859    4.91499996    0.84799999
   13.64999962    4.91499996    0.71300000
   13.65083313    4.91499996    0.57800001
   13.65194416    4.91499996    0.63599998
   13.65277767    4.91499996    0.67400002
   13.65388870    4.91499996    0.65499997
   13.65472221    4.91499996    0.80900002
   13.65583324    4.91499996    0.69300002
   13.65694427    4.91499996    0.61600000
   13.65777779    4.91499996    0.63599998
   13.65888882    4.91499996    0.77100003
   13.65972137    4.91499996    0.96300000
   13.66083336    4.91499996    0.92500001
   13.66194439    4.91499996    1.03999996
   13.66277695    4.91499996    1.30999994
   13.66388893    4.91499996    1.15600002
   13.66472149    4.91499996    0.94400001
   13.66583252    4.91499996    0.84799999
   13.66694450    4.91499996    0.86699998
   13.66777802    4.91499996    0.80900002
   13.66888905    4.91499996    0.96300000
   13.66972256    4.91499996    0.94400001
   13.67083359    4.91499996    0.90600002
   13.67194462    4.91499996    1.17499995
   13.67277813    4.91499996    1.17499995
   13.67388916    4.91499996    1.19500005
   13.67472267    4.91499996    1.56099999
   13.67583370    4.91499996    1.63800001
   13.67694473    4.91499996    1.61899996
   13.67777824    4.91499996    1.29100001
   13.67888927    4.91499996    1.44500005
   13.68000031    4.91499996    1.65699995
   13.68083382    4.91499996    1.63800001
   13.68194485    4.91499996    1.58000004
   13.68277836    4.91499996    1.25300002
   13.68388939    4.91499996    1.25300002
   13.68500042    4.91499996    1.07900000
   13.68583298    4.91499996    1.17499995
   13.68694496    4.91499996    1.29100001
   13.68777752    4.91499996    1.07900000
   13.68888855    4.91499996    0.86699998
   13.68972206    4.91499996    0.77100003
   13.69083309    4.91499996    0.69300002
   13.69194412    4.91499996    0.61600000
   13.69277763    4.91499996    0.63599998
   13.69388866    4.91499996    0.53899997
   13.69499969    4.91499996    0.38499999
   13.69583321    4.91499996    0.34599999
   13.69694424    4.91499996    0.38499999
   13.69777775    4.91499996    0.50099999
   13.69888878    4.91499996    0.65499997
   13.69999981    4.91499996    0.86699998
   13.70083332    4.91499996    1.09800005
   13.70194435    4.91499996    1.07900000
   13.70305538    4.91499996    0.92500001
   13.70388889    4.91499996    0.92500001
   13.70499992    4.91499996    0.77100003
   13.70583344    4.91499996    0.71300000
   13.70694447    4.91499996    0.61600000
   13.70805550    4.91499996    0.65499997
   13.70888901    4.91499996    0.46200001
   13.71000004    4.91499996    0.30800000
   13.71083355    4.91499996    0.25000000
   13.71194458    4.91499996    0.30800000
   13.71305561    4.91499996    0.34599999
   13.71388912    4.91499996    0.25000000
   13.71500015    4.91499996    0.21200000
   13.71583271    4.91499996    0.25000000
   13.71694374    4.91499996    0.34599999
   13.71777725    4.91499996    0.42399999
   13.71888828    4.91499996    0.34599999
   13.71999931    4.91499996    0.46200001
   13.72111034    4.91499996    0.67400002
   13.72194386    4.91499996    0.69300002
   13.72305489    4.91499996    0.40400001
   13.72388840    4.91499996    0.61600000
   13.72499943    4.91499996    0.48100001
   13.72611046    4.91499996    0.48100001
   13.72694397    4.91499996    0.59700000
   13.72805500    4.91499996    0.79000002
   13.72888851    4.91499996    1.15600002
   13.72999954    4.91499996    1.11800003
   13.73111057    4.91499996    1.23300004
   13.73194408    4.91499996    1.25300002
   13.73305511    4.91499996    1.34899998
   13.73416710    4.91499996    1.33000004
   13.73500061    4.91499996    1.13699996
   13.73611164    4.91499996    0.94400001
   13.73694515    4.91499996    0.50099999
   13.73805618    4.91499996    0.28900000
   13.73916721    4.91499996    0.28900000
   13.74000072    4.91499996    0.34599999
   13.74111176    4.91499996    0.34599999
   13.74194431    4.91499996    0.25000000
   13.74305534    4.91499996    0.28900000
   13.74416733    4.91499996    0.34599999
   13.74499989    4.91499996    0.28900000
   13.74611092    4.91499996    0.26899999
   13.74694443    4.91499996    0.34599999
   13.74805546    4.91499996    0.34599999
   13.74888897    4.91499996    0.48100001
   13.75000000    4.91499996    0.65499997
   13.75111103    4.91499996    0.71300000
   13.75194454    4.91499996    0.61600000
   13.75305557    4.91499996    0.53899997
   13.75416660    4.91499996    0.67400002
   13.75500011    4.91499996    0.88599998
   13.75611115    4.91499996    0.79000002
   13.75694466    4.91499996    0.82800001
   13.75805569    4.91499996    0.86699998
   13.75916672    4.91499996    1.07900000
   13.76000023    4.91499996    0.86699998
   13.76111126    4.91499996    0.86699998
   13.76194477    4.91499996    0.80900002
   13.76305580    4.91499996    0.79000002
   13.76416683    4.91499996    0.86699998
   13.76500034    4.91499996    0.61600000
   13.76611137    4.91499996    0.57800001
   13.76722240    4.91499996    0.82800001
   13.76805496    4.91499996    1.38699996
   13.76916599    4.91499996    1.33000004
   13.76999950    4.91499996    0.90600002
   13.77111053    4.91499996    0.92500001
   13.77222157    4.91499996    0.90600002
   13.77305508    4.91499996    0.94400001
   13.77416611    4.91499996    1.50300002
   13.77499962    4.91499996    1.54200006
   13.77611065    4.91499996    1.38699996
   13.77722168    4.91499996    1.29100001
   13.77805519    4.91499996    0.98299998
   13.77916622    4.91499996    0.86699998
   13.77999973    4.91499996    0.86699998
   13.78111076    4.91499996    0.57800001
   13.78222179    4.91499996    0.38499999
   13.78305531    4.91499996    0.36600000
   13.78416729    4.91499996    0.30800000
   13.78500080    4.91499996    0.32699999
   13.78611183    4.91499996    0.57800001
   13.78722286    4.91499996    1.29100001
   13.78805637    4.91499996    1.60000002
   13.78916740    4.91499996    1.52199996
   13.79000092    4.91499996    1.46500003
   13.79111195    4.91499996    1.52199996
   13.79194450    4.91499996    1.42600000
   13.79305553    4.91499996    1.40699995
   13.79416752    4.91499996    1.36800003
   13.79500008    4.91499996    1.48399997
   13.79611111    4.91499996    1.25300002
   13.79694462    4.91499996    1.13699996
   13.79805565    4.91499996    0.80900002
   13.79916668    4.91499996    0.63599998
   13.80000019    4.91499996    0.48100001
   13.80111122    4.91499996    0.46200001
   13.80222225    4.91499996    0.51999998
   13.80305576    4.91499996    0.36600000
   13.80416679    4.91499996    0.40400001
   13.80500031    4.91499996    0.25000000
   13.80611134    4.91499996    0.21200000
   13.80722237    4.91499996    0.25000000
   13.80805588    4.91499996    0.25000000
   13.80916691    4.91499996    0.21200000
   13.81000042    4.91499996    0.19200000
   13.81111145    4.91499996    0.15400000
   13.81222248    4.91499996    0.15400000
   13.81305599    4.91499996    0.17299999
   13.81416702    4.91499996    0.30800000
   13.81527805    4.91499996    0.32699999
   13.81611156    4.91499996    0.25000000
   13.81722260    4.91499996    0.15400000
   13.81805515    4.91499996    0.05700000
   13.81916618    4.91499996    0.03800000
   13.82027817    4.91499996    0.01900000
   13.84472179    4.91499996    0.01900000
   13.84583282    4.91499996    0.01900000
   13.84777737    4.91499996    0.01900000
   13.84888840    4.91499996    0.05700000
   13.85000038    4.91499996    0.09600000
   13.85083389    4.91499996    0.07700000
   13.85194492    4.91499996    0.09600000
   13.85277843    4.91499996    0.11500000
   13.85388947    4.91499996    0.17299999
   13.85500050    4.91499996    0.15400000
   13.85583401    4.91499996    0.09600000
   13.85694504    4.91499996    0.01900000
   13.87305546    4.91499996    0.01900000
   13.87416649    4.91499996    0.01900000
   13.88194466    4.91499996    0.01900000
   13.88305569    4.91499996    0.05700000
   13.88416672    4.91499996    0.23100001
   13.88500023    4.91499996    0.21200000
   13.88611126    4.91499996    0.07700000
   13.88722229    4.91499996    0.05700000
   13.88805580    4.91499996    0.07700000
   13.88916683    4.91499996    0.07700000
   13.89000034    4.91499996    0.05700000
   13.89111137    4.91499996    0.03800000
   13.89222240    4.91499996    0.01900000
   13.89305496    4.91499996    0.01900000
   13.89416695    4.91499996    0.01900000
   13.89527798    4.91499996    0.01900000
   13.89722252    4.91499996    0.01900000
   13.89805508    4.91499996    0.01900000
   13.89916611    4.91499996    0.01900000
   13.90027714    4.91499996    0.01900000
   13.90111065    4.91499996    0.05700000
   13.90222168    4.91499996    0.09600000
   13.90333271    4.91499996    0.07700000
   13.90416622    4.91499996    0.05700000
   13.90527725    4.91499996    0.05700000
   13.90611076    4.91499996    0.17299999
   13.90722179    4.91499996    0.15400000
   13.90833282    4.91499996    0.09600000
   13.90916634    4.91499996    0.13400000
   13.91027737    4.91499996    0.09600000
   13.91138840    4.91499996    0.07700000
   13.91222191    4.91499996    0.05700000
   13.91333294    4.91499996    0.09600000
   13.91444397    4.91499996    0.11500000
   13.91527748    4.91499996    0.17299999
   13.91638851    4.91499996    0.15400000
   13.91722298    4.91499996    0.13400000
   13.91833401    4.91499996    0.15400000
   13.91944504    4.91499996    0.19200000
   13.92027855    4.91499996    0.21200000
   13.92138958    4.91499996    0.30800000
   13.92222214    4.91499996    0.25000000
   13.92333412    4.91499996    0.17299999
   13.92416668    4.91499996    0.13400000
   13.92527771    4.91499996    0.11500000
   13.92638874    4.91499996    0.13400000
   13.92722225    4.91499996    0.21200000
   13.92833328    4.91499996    0.17299999
   13.92944431    4.91499996    0.13400000
   13.93027782    4.91499996    0.11500000
   13.93138885    4.91499996    0.11500000
   13.93249989    4.91499996    0.13400000
   13.93333340    4.91499996    0.15400000
   13.93444443    4.91499996    0.19200000
   13.93555546    4.91499996    0.07700000
   13.93638897    4.91499996    0.03800000
   13.93750000    4.91499996    0.01900000
   13.94750023    4.91499996    0.01900000
   13.94833374    4.91499996    0.07700000
   13.94944477    4.91499996    0.15400000
   13.95055580    4.91499996    0.15400000
   13.95138836    4.91499996    0.07700000
   13.95249939    4.91499996    0.07700000
   13.95333290    4.91499996    0.09600000
   13.95444393    4.91499996    0.17299999
   13.95555496    4.91499996    0.23100001
   13.95638847    4.91499996    0.23100001
   13.95749950    4.91499996    0.30800000
   13.95861053    4.91499996    0.23100001
   13.95944405    4.91499996    0.19200000
   13.96055508    4.91499996    0.15400000
   13.96166611    4.91499996    0.11500000
   13.96249962    4.91499996    0.15400000
   13.96361065    4.91499996    0.15400000
   13.96444416    4.91499996    0.26899999
   13.96555519    4.91499996    0.28900000
   13.96666622    4.91499996    0.17299999
   13.96777725    4.91499996    0.09600000
   13.96861076    4.91499996    0.09600000
   13.96972179    4.91499996    0.15400000
   13.97055531    4.91499996    0.21200000
   13.97166634    4.91499996    0.28900000
   13.97249985    4.91499996    0.32699999
   13.97361088    4.91499996    0.40400001
   13.97472191    4.91499996    0.28900000
   13.97555542    4.91499996    0.19200000
   13.97666645    4.91499996    0.17299999
   13.97777748    4.91499996    0.23100001
   13.97861099    4.91499996    0.19200000
   13.97972202    4.91499996    0.15400000
   13.98055553    4.91499996    0.09600000
   13.98166656    4.91499996    0.05700000
   13.98277760    4.91499996    0.07700000
   13.98361111    4.91499996    0.11500000
   13.98472214    4.91499996    0.21200000
   13.98555565    4.91499996    0.25000000
   13.98666668    4.91499996    0.19200000
   13.98750019    4.91499996    0.15400000
   13.98861122    4.91499996    0.11500000
   13.98972225    4.91499996    0.15400000
   13.99055576    4.91499996    0.19200000
   13.99166679    4.91499996    0.23100001
   13.99277782    4.91499996    0.21200000
   13.99361134    4.91499996    0.15400000
   13.99472237    4.91499996    0.23100001
   13.99583340    4.91499996    0.30800000
   13.99666691    4.91499996    0.40400001
   13.99777794    4.91499996    0.44299999
   13.99861145    4.91499996    0.61600000
   13.99972248    4.91499996    0.34599999
   14.00083351    4.91499996    0.23100001
   14.00166702    4.91499996    0.19200000
   14.00277805    4.91499996    0.09600000
   14.00388908    4.91499996    0.01900000
   14.01583290    4.91499996    0.01900000
   14.01694393    4.91499996    0.01900000
   14.01777744    4.91499996    0.03800000
   14.01888847    4.91499996    0.05700000
   14.01972198    4.91499996    0.03800000
   14.02083302    4.91499996    0.03800000
   14.02194405    4.91499996    0.01900000
   14.02277756    4.91499996    0.01900000
   14.03083324    4.91499996    0.01900000
   14.03194427    4.91499996    0.01900000
   14.03277779    4.91499996    0.03800000
   14.03388977    4.91499996    0.09600000
   14.03500080    4.91499996    0.13400000
   14.03583336    4.91499996    0.09600000
   14.03694534    4.91499996    0.05700000
   14.03805637    4.91499996    0.01900000
   14.05277824    4.91499996    0.01900000
   14.05388927    4.91499996    0.03800000
   14.05500031    4.91499996    0.01900000
   14.05583382    4.91499996    0.05700000
   14.05694485    4.91499996    0.11500000
   14.05777836    4.91499996    0.19200000
   14.05888939    4.91499996    0.30800000
   14.06000042    4.91499996    0.26899999
   14.06083393    4.91499996    0.23100001
   14.06194496    4.91499996    0.30800000
   14.06277752    4.91499996    0.32699999
   14.06388950    4.91499996    0.34599999
   14.06500053    4.91499996    0.46200001
   14.06583309    4.91499996    0.59700000
   14.06694412    4.91499996    0.34599999
   14.06777763    4.91499996    0.26899999
   14.06888866    4.91499996    0.26899999
   14.06999969    4.91499996    0.26899999
   14.07083321    4.91499996    0.19200000
   14.07194424    4.91499996    0.15400000
   14.07305527    4.91499996    0.15400000
   14.07388878    4.91499996    0.23100001
   14.07499981    4.91499996    0.34599999
   14.07583332    4.91499996    0.90600002
   14.07694435    4.91499996    0.69300002
   14.07805538    4.91499996    0.53899997
   14.07888889    4.91499996    0.86699998
   14.07999992    4.91499996    1.83099997
   14.08111095    4.91499996    2.11999989
   14.08194447    4.91499996    1.44500005
   14.08305550    4.91499996    1.23300004
   14.08388901    4.91499996    1.56099999
   14.08500004    4.91499996    2.25500011
   14.08611107    4.91499996    2.39000010
   14.08694458    4.91499996    2.37100005
   14.08805561    4.91499996    2.17799997
   14.08888817    4.91499996    1.83099997
   14.09000015    4.91499996    1.42600000
   14.09111118    4.91499996    1.09800005
   14.09194374    4.91499996    1.25300002
   14.09305477    4.91499996    0.96300000
   14.09388828    4.91499996    0.71300000
   14.09499931    4.91499996    0.71300000
   14.09611034    4.91499996    1.00199997
   14.09694386    4.91499996    1.34899998
   14.09805489    4.91499996    1.63800001
   14.09888840    4.91499996    1.46500003
   14.10000038    4.91499996    1.21399999
   14.10111141    4.91499996    0.94400001
   14.10194492    4.91499996    0.77100003
   14.10305595    4.91499996    1.13699996
   14.10388947    4.91499996    1.65699995
   14.10500050    4.91499996    2.15899992
   14.10611153    4.91499996    1.63800001
   14.10694504    4.91499996    2.13899994
   14.10805607    4.91499996    2.46700001
   14.10916710    4.91499996    2.40899992
   14.11000061    4.91499996    2.46700001
   14.11111164    4.91499996    2.42799997
   14.11222267    4.91499996    2.39000010
   14.11305618    4.91499996    1.75399995
   14.11416721    4.91499996    1.79200006
   14.11500072    4.91499996    1.69599998
   14.11611176    4.91499996    1.81200004
   14.11722279    4.91499996    2.08100009
   14.11805534    4.91499996    2.39000010
   14.11916637    4.91499996    2.13899994
   14.11999989    4.91499996    2.19700003
   14.12111092    4.91499996    1.88900006
   14.12194443    4.91499996    1.73399997
   14.12305546    4.91499996    1.83099997
   14.12416649    4.91499996    1.69599998
   14.12500000    4.91499996    2.11999989
   14.12611103    4.91499996    2.00399995
   14.12694454    4.91499996    1.92700005
   14.12805557    4.91499996    1.58000004
   14.12916660    4.91499996    1.02100003
   14.13000011    4.91499996    1.52199996
   14.13111115    4.91499996    0.92500001
   14.13222218    4.91499996    1.71500003
   14.13305569    4.91499996    1.86899996
   14.13416672    4.91499996    1.88900006
   14.13500023    4.91499996    1.65699995
   14.13611126    4.91499996    1.56099999
   14.13722229    4.91499996    2.17799997
   14.13805580    4.91499996    2.48600006
   14.13916683    4.91499996    2.64000010
   14.14000034    4.91499996    2.67899990
   14.14111137    4.91499996    2.15899992
   14.14222240    4.91499996    1.42600000
   14.14305496    4.91499996    1.02100003
   14.14416695    4.91499996    1.09800005
   14.14527798    4.91499996    2.25500011
   14.14611053    4.91499996    2.33200002
   14.14722252    4.91499996    2.29399991
   14.14833355    4.91499996    2.37100005
   14.14916611    4.91499996    2.11999989
   14.15027714    4.91499996    1.25300002
   14.15111065    4.91499996    1.30999994
   14.15222168    4.91499996    1.69599998
   14.15333271    4.91499996    2.25500011
   14.15416622    4.91499996    1.88900006
   14.15527725    4.91499996    2.02399993
   14.15638828    4.91499996    2.08100009
   14.15722179    4.91499996    1.81200004
   14.15833282    4.91499996    1.77300000
   14.15944386    4.91499996    1.33000004
   14.16027737    4.91499996    1.44500005
   14.16138840    4.91499996    1.15600002
   14.16222191    4.91499996    0.51999998
   14.16333294    4.91499996    0.40400001
   14.16444397    4.91499996    0.36600000
   14.16527748    4.91499996    0.50099999
   14.16638851    4.91499996    1.33000004
   14.16750050    4.91499996    1.38699996
   14.16833401    4.91499996    1.00199997
   14.16944504    4.91499996    0.65499997
   14.17055607    4.91499996    0.73199999
   14.17138958    4.91499996    0.69300002
   14.17250061    4.91499996    0.61600000
   14.17333412    4.91499996    0.50099999
   14.17444515    4.91499996    0.50099999
   14.17555618    4.91499996    0.50099999
   14.17638874    4.91499996    0.77100003
   14.17750072    4.91499996    0.73199999
   14.17833328    4.91499996    0.77100003
   14.17944431    4.91499996    0.59700000
   14.18055630    4.91499996    0.98299998
   14.18138885    4.91499996    1.03999996
   14.18249989    4.91499996    1.33000004
   14.18361092    4.91499996    1.38699996
   14.18444443    4.91499996    1.38699996
   14.18555546    4.91499996    1.69599998
   14.18638897    4.91499996    1.40699995
   14.18750000    4.91499996    1.86899996
   14.18861103    4.91499996    2.00399995
   14.18944454    4.91499996    1.83099997
   14.19055557    4.91499996    1.52199996
   14.19166660    4.91499996    1.54200006
   14.19250011    4.91499996    1.69599998
   14.19361115    4.91499996    1.81200004
   14.19444466    4.91499996    1.79200006
   14.19555569    4.91499996    1.81200004
   14.19666672    4.91499996    1.71500003
   14.19750023    4.91499996    1.75399995
   14.19861126    4.91499996    2.06200004
   14.19944477    4.91499996    2.06200004
   14.20055580    4.91499996    2.00399995
   14.20166683    4.91499996    2.10100007
   14.20249939    4.91499996    2.00399995
   14.20361137    4.91499996    2.15899992
   14.20444393    4.91499996    2.00399995
   14.20555496    4.91499996    2.02399993
   14.20666695    4.91499996    2.04299998
   14.20749950    4.91499996    2.11999989
   14.20861053    4.91499996    2.17799997
   14.20944405    4.91499996    2.19700003
   14.21055508    4.91499996    2.23600006
   14.21138859    4.91499996    2.31299996
   14.21249962    4.91499996    2.33200002
   14.21361065    4.91499996    2.35100007
   14.21444416    4.91499996    2.39000010
   14.21555519    4.91499996    2.48600006
   14.21638870    4.91499996    2.52500010
   14.21749973    4.91499996    2.40899992
   14.21861076    4.91499996    2.17799997
   14.21944427    4.91499996    2.27399993
   14.22055531    4.91499996    2.33200002
   14.22166634    4.91499996    2.39000010
   14.22249985    4.91499996    2.37100005
   14.22361088    4.91499996    2.19700003
   14.22472191    4.91499996    2.08100009
   14.22555542    4.91499996    1.79200006
   14.22666645    4.91499996    2.02399993
   14.22749996    4.91499996    2.17799997
   14.22861099    4.91499996    2.15899992
   14.22972202    4.91499996    1.90799999
   14.23055553    4.91499996    1.81200004
   14.23166656    4.91499996    2.15899992
   14.23277760    4.91499996    2.27399993
   14.23361111    4.91499996    2.31299996
   14.23472214    4.91499996    2.27399993
   14.23555565    4.91499996    2.13899994
   14.23666668    4.91499996    2.10100007
   14.23777771    4.91499996    2.15899992
   14.23861122    4.91499996    2.04299998
   14.23972225    4.91499996    2.00399995
   14.24055576    4.91499996    2.02399993
   14.24166679    4.91499996    1.96599996
   14.24277782    4.91499996    2.02399993
   14.24361134    4.91499996    2.04299998
   14.24472237    4.91499996    1.83099997
   14.24583340    4.91499996    1.54200006
   14.24666691    4.91499996    1.50300002
   14.24777794    4.91499996    1.27199996
   14.24888897    4.91499996    1.42600000
   14.24972248    4.91499996    1.65699995
   14.25083351    4.91499996    1.77300000
   14.25166702    4.91499996    1.61899996
   14.25277805    4.91499996    1.33000004
   14.25388908    4.91499996    1.79200006
   14.25472260    4.91499996    1.61899996
   14.25583363    4.91499996    1.69599998
   14.25694466    4.91499996    1.50300002
   14.25777817    4.91499996    1.25300002
   14.25888920    4.91499996    1.00199997
   14.25972176    4.91499996    1.17499995
   14.26083374    4.91499996    1.40699995
   14.26194477    4.91499996    1.52199996
   14.26305580    4.91499996    1.42600000
   14.26388931    4.91499996    1.71500003
   14.26500034    4.91499996    1.75399995
   14.26583290    4.91499996    1.71500003
   14.26694393    4.91499996    1.69599998
   14.26805496    4.91499996    1.67700005
   14.26888847    4.91499996    1.29100001
   14.26999950    4.91499996    1.65699995
   14.27111053    4.91499996    1.58000004
   14.27194405    4.91499996    1.71500003
   14.27305508    4.91499996    1.60000002
   14.27388859    4.91499996    1.69599998
   14.27499962    4.91499996    1.38699996
   14.27583313    4.91499996    1.38699996
   14.27694416    4.91499996    1.46500003
   14.27805519    4.91499996    1.63800001
   14.27888870    4.91499996    1.81200004
   14.27999973    4.91499996    1.83099997
   14.28111076    4.91499996    1.85000002
   14.28194427    4.91499996    1.85000002
   14.28305531    4.91499996    1.85000002
   14.28388977    4.91499996    1.67700005
   14.28500080    4.91499996    1.27199996
   14.28611183    4.91499996    1.38699996
   14.28694534    4.91499996    1.40699995
   14.28805637    4.91499996    1.52199996
   14.28916740    4.91499996    1.67700005
   14.29000092    4.91499996    1.65699995
   14.29111195    4.91499996    1.81200004
   14.29194450    4.91499996    1.81200004
   14.29305553    4.91499996    1.92700005
   14.29416752    4.91499996    2.08100009
   14.29500008    4.91499996    2.15899992
   14.29611111    4.91499996    2.23600006
   14.29722309    4.91499996    2.15899992
   14.29805565    4.91499996    2.17799997
   14.29916668    4.91499996    2.17799997
   14.30000019    4.91499996    2.19700003
   14.30111122    4.91499996    2.15899992
   14.30222225    4.91499996    2.08100009
   14.30305576    4.91499996    2.25500011
   14.30416679    4.91499996    2.06200004
   14.30500031    4.91499996    2.00399995
   14.30611134    4.91499996    2.15899992
   14.30694485    4.91499996    2.31299996
   14.30805588    4.91499996    2.37100005
   14.30916691    4.91499996    2.19700003
   14.31000042    4.91499996    2.10100007
   14.31111145    4.91499996    1.83099997
   14.31194496    4.91499996    2.17799997
   14.31305599    4.91499996    2.27399993
   14.31388950    4.91499996    2.21600008
   14.31500053    4.91499996    2.13899994
   14.31611156    4.91499996    1.96599996
   14.31694412    4.91499996    1.92700005
   14.31805515    4.91499996    2.17799997
   14.31916618    4.91499996    2.06200004
   14.31999969    4.91499996    1.81200004
   14.32111073    4.91499996    1.71500003
   14.32194424    4.91499996    1.98500001
   14.32305527    4.91499996    2.10100007
   14.32416630    4.91499996    2.08100009
   14.32499981    4.91499996    2.06200004
   14.32611084    4.91499996    1.90799999
   14.32722187    4.91499996    2.29399991
   14.32805538    4.91499996    2.25500011
   14.32916641    4.91499996    2.00399995
   14.32999992    4.91499996    1.98500001
   14.33111095    4.91499996    1.67700005
   14.33222198    4.91499996    1.46500003
   14.33305550    4.91499996    1.11800003
   14.33416653    4.91499996    0.69300002
   14.33500004    4.91499996    0.63599998
   14.33611107    4.91499996    2.00399995
   14.33722210    4.91499996    2.31299996
   14.33805561    4.91499996    2.31299996
   14.33916664    4.91499996    2.31299996
   14.34000015    4.91499996    2.29399991
   14.34111118    4.91499996    2.08100009
   14.34222221    4.91499996    1.58000004
   14.34305477    4.91499996    1.50300002
   14.34416676    4.91499996    1.65699995
   14.34499931    4.91499996    1.79200006
   14.34611034    4.91499996    1.46500003
   14.34722233    4.91499996    1.44500005
   14.34805489    4.91499996    1.48399997
   14.34916592    4.91499996    1.33000004
   14.35027790    4.91499996    1.07900000
   14.35111141    4.91499996    0.71300000
   14.35222244    4.91499996    0.65499997
   14.35305595    4.91499996    0.57800001
   14.35416698    4.91499996    0.71300000
   14.35527802    4.91499996    0.63599998
   14.35611153    4.91499996    0.77100003
   14.35722256    4.91499996    0.92500001
   14.35805607    4.91499996    0.80900002
   14.35916710    4.91499996    1.07900000
   14.36027813    4.91499996    1.15600002
   14.36111164    4.91499996    1.17499995
   14.36222267    4.91499996    1.00199997
   14.36305618    4.91499996    1.11800003
   14.36416721    4.91499996    1.27199996
   14.36527824    4.91499996    1.38699996
   14.36611176    4.91499996    1.54200006
   14.36722279    4.91499996    1.60000002
   14.36833382    4.91499996    1.67700005
   14.36916637    4.91499996    1.60000002
   14.37027836    4.91499996    1.40699995
   14.37138939    4.91499996    1.40699995
   14.37222195    4.91499996    1.44500005
   14.37333393    4.91499996    1.03999996
   14.37416649    4.91499996    0.46200001
   14.37527752    4.91499996    0.50099999
   14.37638855    4.91499996    0.71300000
   14.37722206    4.91499996    0.71300000
   14.37833309    4.91499996    0.48100001
   14.37916660    4.91499996    0.53899997
   14.38027763    4.91499996    0.77100003
   14.38111115    4.91499996    0.63599998
   14.38222218    4.91499996    0.36600000
   14.38333321    4.91499996    0.32699999
   14.38416672    4.91499996    0.19200000
   14.38527775    4.91499996    0.09600000
   14.38638878    4.91499996    0.07700000
   14.38722229    4.91499996    0.03800000
   14.38833332    4.91499996    0.05700000
   14.38916683    4.91499996    0.05700000
   14.39027786    4.91499996    0.07700000
   14.39111137    4.91499996    0.15400000
   14.39222240    4.91499996    0.28900000
   14.39305496    4.91499996    0.53899997
   14.39416695    4.91499996    0.46200001
   14.39527798    4.91499996    0.46200001
   14.39611053    4.91499996    0.42399999
   14.39722252    4.91499996    0.36600000
   14.39833355    4.91499996    0.46200001
   14.39916611    4.91499996    0.50099999
   14.40027714    4.91499996    0.34599999
   14.40111065    4.91499996    0.25000000
   14.40222168    4.91499996    0.21200000
   14.40333271    4.91499996    0.19200000
   14.40416622    4.91499996    0.32699999
   14.40527725    4.91499996    0.36600000
   14.40611076    4.91499996    0.61600000
   14.40722179    4.91499996    0.69300002
   14.40833282    4.91499996    0.98299998
   14.40916634    4.91499996    1.09800005
   14.41027737    4.91499996    1.07900000
   14.41138840    4.91499996    0.98299998
   14.41222191    4.91499996    1.00199997
   14.41333294    4.91499996    0.82800001
   14.41416645    4.91499996    0.80900002
   14.41527748    4.91499996    0.80900002
   14.41611099    4.91499996    0.82800001
   14.41722298    4.91499996    0.84799999
   14.41833401    4.91499996    0.82800001
   14.41916656    4.91499996    0.84799999
   14.42027855    4.91499996    0.86699998
   14.42138958    4.91499996    0.71300000
   14.42222214    4.91499996    0.84799999
   14.42333412    4.91499996    0.96300000
   14.42444515    4.91499996    0.73199999
   14.42527771    4.91499996    0.46200001
   14.42638874    4.91499996    0.42399999
   14.42750072    4.91499996    0.50099999
   14.42833328    4.91499996    0.46200001
   14.42944431    4.91499996    0.30800000
   14.43027782    4.91499996    0.23100001
   14.43138885    4.91499996    0.25000000
   14.43249989    4.91499996    0.28900000
   14.43333340    4.91499996    0.26899999
   14.43444443    4.91499996    0.25000000
   14.43555546    4.91499996    0.25000000
   14.43638897    4.91499996    0.28900000
   14.43750000    4.91499996    0.28900000
   14.43833351    4.91499996    0.28900000
   14.43944454    4.91499996    0.36600000
   14.44055557    4.91499996    0.59700000
   14.44138908    4.91499996    0.59700000
   14.44250011    4.91499996    1.40699995
   14.44333363    4.91499996    1.38699996
   14.44444466    4.91499996    1.03999996
   14.44555569    4.91499996    0.90600002
   14.44638920    4.91499996    0.90600002
   14.44750023    4.91499996    0.86699998
   14.44833374    4.91499996    0.84799999
   14.44944477    4.91499996    1.09800005
   14.45055580    4.91499996    1.15600002
   14.45138836    4.91499996    1.02100003
   14.45249939    4.91499996    0.90600002
   14.45333290    4.91499996    0.86699998
   14.45444393    4.91499996    0.80900002
   14.45555496    4.91499996    0.82800001
   14.45638847    4.91499996    0.94400001
   14.45749950    4.91499996    1.34899998
   14.45833302    4.91499996    1.11800003
   14.45944405    4.91499996    0.67400002
   14.46027756    4.91499996    0.79000002
   14.46138859    4.91499996    1.40699995
   14.46249962    4.91499996    1.34899998
   14.46333313    4.91499996    0.90600002
   14.46444416    4.91499996    0.92500001
   14.46555519    4.91499996    1.13699996
   14.46638870    4.91499996    1.69599998
   14.46749973    4.91499996    1.50300002
   14.46833324    4.91499996    1.38699996
   14.46944427    4.91499996    1.42600000
   14.47055531    4.91499996    1.17499995
   14.47138882    4.91499996    0.61600000
   14.47249985    4.91499996    0.94400001
   14.47361088    4.91499996    1.09800005
   14.47444439    4.91499996    0.82800001
   14.47555542    4.91499996    0.46200001
   14.47638798    4.91499996    0.30800000
   14.47749996    4.91499996    0.30800000
   14.47861099    4.91499996    0.34599999
   14.47944355    4.91499996    0.34599999
   14.48055553    4.91499996    0.32699999
   14.48138809    4.91499996    0.23100001
   14.48249912    4.91499996    0.23100001
   14.48361111    4.91499996    0.30800000
   14.48444462    4.91499996    0.38499999
   14.48555565    4.91499996    0.67400002
   14.48638916    4.91499996    0.84799999
   14.48750019    4.91499996    0.69300002
   14.48861122    4.91499996    0.98299998
   14.48944473    4.91499996    1.07900000
   14.49055576    4.91499996    1.15600002
   14.49138927    4.91499996    0.98299998
   14.49250031    4.91499996    0.86699998
   14.49361134    4.91499996    0.84799999
   14.49444485    4.91499996    0.73199999
   14.49555588    4.91499996    0.55900002
   14.49666691    4.91499996    0.42399999
   14.49750042    4.91499996    0.46200001
   14.49861145    4.91499996    0.59700000
   14.49944496    4.91499996    1.36800003
   14.50055599    4.91499996    1.27199996
   14.50138855    4.91499996    1.02100003
   14.50249958    4.91499996    1.02100003
   14.50361156    4.91499996    1.07900000
   14.50444412    4.91499996    1.15600002
   14.50555515    4.91499996    1.42600000
   14.50638866    4.91499996    1.75399995
   14.50749969    4.91499996    1.38699996
   14.50861073    4.91499996    1.23300004
   14.50944424    4.91499996    1.21399999
   14.51055527    4.91499996    1.15600002
   14.51166630    4.91499996    0.67400002
   14.51249981    4.91499996    0.32699999
   14.51361084    4.91499996    0.26899999
   14.51472187    4.91499996    0.23100001
   14.51555538    4.91499996    0.23100001
   14.51666641    4.91499996    0.38499999
   14.51749992    4.91499996    0.51999998
   14.51861095    4.91499996    0.25000000
   14.51944447    4.91499996    0.25000000
   14.52055550    4.91499996    0.40400001
   14.52166653    4.91499996    0.86699998
   14.52250004    4.91499996    1.00199997
   14.52361107    4.91499996    0.48100001
   14.52472210    4.91499996    0.15400000
   14.52555561    4.91499996    0.09600000
   14.52666664    4.91499996    0.07700000
   14.52750015    4.91499996    0.07700000
   14.52861118    4.91499996    0.07700000
   14.52972221    4.91499996    0.07700000
   14.53055573    4.91499996    0.11500000
   14.53166676    4.91499996    0.15400000
   14.53249931    4.91499996    0.23100001
   14.53361130    4.91499996    0.21200000
   14.53472233    4.91499996    0.30800000
   14.53555584    4.91499996    0.34599999
   14.53666687    4.91499996    0.69300002
   14.53750038    4.91499996    0.65499997
   14.53861141    4.91499996    0.61600000
   14.53972244    4.91499996    0.73199999
   14.54055595    4.91499996    0.69300002
   14.54166698    4.91499996    0.59700000
   14.54277802    4.91499996    0.65499997
   14.54361153    4.91499996    0.51999998
   14.54472256    4.91499996    1.23300004
   14.54555607    4.91499996    1.33000004
   14.54666710    4.91499996    0.96300000
   14.54777813    4.91499996    0.69300002
   14.54861164    4.91499996    0.90600002
   14.54972267    4.91499996    1.05999994
   14.55083370    4.91499996    0.53899997
   14.55166721    4.91499996    0.71300000
   14.55277824    4.91499996    0.53899997
   14.55361176    4.91499996    0.48100001
   14.55472279    4.91499996    0.55900002
   14.55583382    4.91499996    0.67400002
   14.55666733    4.91499996    0.67400002
   14.55777836    4.91499996    1.03999996
   14.55861092    4.91499996    1.60000002
   14.55972195    4.91499996    1.50300002
   14.56083393    4.91499996    1.42600000
   14.56166649    4.91499996    1.52199996
   14.56277752    4.91499996    1.63800001
   14.56361103    4.91499996    1.79200006
   14.56472206    4.91499996    1.86899996
   14.56583309    4.91499996    1.71500003
   14.56666660    4.91499996    1.73399997
   14.56777763    4.91499996    1.69599998
   14.56861115    4.91499996    1.61899996
   14.56972218    4.91499996    1.77300000
   14.57083321    4.91499996    1.71500003
   14.57166672    4.91499996    1.94700003
   14.57277775    4.91499996    2.10100007
   14.57361126    4.91499996    2.11999989
   14.57472229    4.91499996    2.04299998
   14.57583332    4.91499996    2.02399993
   14.57666683    4.91499996    1.96599996
   14.57777786    4.91499996    1.42600000
   14.57861137    4.91499996    1.05999994
   14.57972240    4.91499996    1.38699996
   14.58083344    4.91499996    1.23300004
   14.58166695    4.91499996    1.30999994
   14.58277798    4.91499996    1.38699996
   14.58388901    4.91499996    1.29100001
   14.58472157    4.91499996    1.00199997
   14.58583260    4.91499996    1.25300002
   14.58666611    4.91499996    1.34899998
   14.58777714    4.91499996    1.23300004
   14.58861065    4.91499996    0.71300000
   14.58972168    4.91499996    0.65499997
   14.59083271    4.91499996    1.03999996
   14.59166622    4.91499996    1.02100003
   14.59277725    4.91499996    0.82800001
   14.59388828    4.91499996    1.03999996
   14.59472179    4.91499996    0.94400001
   14.59583282    4.91499996    1.33000004
   14.59666634    4.91499996    1.38699996
   14.59777737    4.91499996    0.84799999
   14.59888840    4.91499996    0.79000002
   14.59972191    4.91499996    0.88599998
   14.60083389    4.91499996    0.92500001
   14.60194492    4.91499996    0.94400001
   14.60277843    4.91499996    1.02100003
   14.60388947    4.91499996    1.02100003
   14.60472298    4.91499996    1.23300004
   14.60583401    4.91499996    1.38699996
   14.60694504    4.91499996    1.40699995
   14.60777855    4.91499996    1.40699995
   14.60888958    4.91499996    1.67700005
   14.61000061    4.91499996    1.52199996
   14.61083412    4.91499996    1.56099999
   14.61194515    4.91499996    1.17499995
   14.61277771    4.91499996    0.82800001
   14.61388969    4.91499996    0.44299999
   14.61500072    4.91499996    0.34599999
   14.61583328    4.91499996    0.38499999
   14.61694431    4.91499996    0.65499997
   14.61805534    4.91499996    0.86699998
   14.61888885    4.91499996    0.98299998
   14.61999989    4.91499996    1.15600002
   14.62083340    4.91499996    1.48399997
   14.62194443    4.91499996    1.11800003
   14.62305546    4.91499996    1.15600002
   14.62388897    4.91499996    1.03999996
   14.62500000    4.91499996    1.07900000
   14.62583351    4.91499996    1.54200006
   14.62694454    4.91499996    1.73399997
   14.62805557    4.91499996    2.42799997
   14.62888908    4.91499996    2.13899994
   14.63000011    4.91499996    2.21600008
   14.63083363    4.91499996    2.08100009
   14.63194466    4.91499996    2.02399993
   14.63277817    4.91499996    1.96599996
   14.63388920    4.91499996    2.17799997
   14.63500023    4.91499996    1.81200004
   14.63583279    4.91499996    1.25300002
   14.63694477    4.91499996    1.38699996
   14.63805580    4.91499996    1.46500003
   14.63888836    4.91499996    2.31299996
   14.64000034    4.91499996    2.31299996
   14.64083290    4.91499996    2.06200004
   14.64194393    4.91499996    2.46700001
   14.64305496    4.91499996    2.62100005
   14.64388847    4.91499996    2.54399991
   14.64499950    4.91499996    2.46700001
   14.64583302    4.91499996    2.48600006
   14.64694405    4.91499996    2.25500011
   14.64805508    4.91499996    2.04299998
   14.64888859    4.91499996    1.92700005
   14.64999962    4.91499996    1.69599998
   14.65083313    4.91499996    1.88900006
   14.65194416    4.91499996    2.11999989
   14.65305519    4.91499996    2.33200002
   14.65388870    4.91499996    2.00399995
   14.65499973    4.91499996    2.35100007
   14.65611076    4.91499996    2.42799997
   14.65694427    4.91499996    2.39000010
   14.65805531    4.91499996    2.39000010
   14.65888882    4.91499996    2.29399991
   14.65999985    4.91499996    2.23600006
   14.66111088    4.91499996    2.17799997
   14.66194439    4.91499996    2.13899994
   14.66305542    4.91499996    2.04299998
   14.66388893    4.91499996    1.96599996
   14.66499996    4.91499996    2.00399995
   14.66611099    4.91499996    2.02399993
   14.66694450    4.91499996    2.10100007
   14.66805553    4.91499996    2.15899992
   14.66916656    4.91499996    2.17799997
   14.67000008    4.91499996    2.06200004
   14.67111111    4.91499996    2.00399995
   14.67194462    4.91499996    1.86899996
   14.67305565    4.91499996    1.83099997
   14.67416668    4.91499996    2.02399993
   14.67500019    4.91499996    2.17799997
   14.67611122    4.91499996    2.46700001
   14.67694473    4.91499996    2.48600006
   14.67805576    4.91499996    2.46700001
   14.67916679    4.91499996    2.39000010
   14.68000031    4.91499996    2.46700001
   14.68111134    4.91499996    2.33200002
   14.68194485    4.91499996    2.25500011
   14.68305588    4.91499996    2.33200002
   14.68416691    4.91499996    2.23600006
   14.68500042    4.91499996    2.25500011
   14.68611145    4.91499996    2.25500011
   14.68722248    4.91499996    2.10100007
   14.68805599    4.91499996    2.15899992
   14.68916702    4.91499996    2.15899992
   14.69000053    4.91499996    2.21600008
   14.69111156    4.91499996    2.15899992
   14.69222260    4.91499996    2.19700003
   14.69305515    4.91499996    2.04299998
   14.69416714    4.91499996    1.92700005
   14.69499969    4.91499996    1.54200006
   14.69611073    4.91499996    1.29100001
   14.69694424    4.91499996    1.11800003
   14.69805527    4.91499996    1.79200006
   14.69916630    4.91499996    1.79200006
   14.69999981    4.91499996    1.77300000
   14.70111084    4.91499996    1.85000002
   14.70222187    4.91499996    1.77300000
   14.70305538    4.91499996    1.44500005
   14.70416641    4.91499996    0.98299998
   14.70499992    4.91499996    0.84799999
   14.70611095    4.91499996    1.00199997
   14.70722198    4.91499996    1.11800003
   14.70805550    4.91499996    0.86699998
   14.70916653    4.91499996    0.77100003
   14.71000004    4.91499996    0.88599998
   14.71111107    4.91499996    0.75099999
   14.71222210    4.91499996    0.88599998
   14.71305561    4.91499996    0.69300002
   14.71416664    4.91499996    0.28900000
   14.71500015    4.91499996    0.23100001
   14.71611118    4.91499996    0.30800000
   14.71722221    4.91499996    0.69300002
   14.71805477    4.91499996    0.65499997
   14.71916580    4.91499996    0.46200001
   14.71999931    4.91499996    0.30800000
   14.72111034    4.91499996    0.30800000
   14.72222137    4.91499996    0.25000000
   14.72305489    4.91499996    0.17299999
   14.72416592    4.91499996    0.11500000
   14.72499943    4.91499996    0.11500000
   14.72611046    4.91499996    0.09600000
   14.72722149    4.91499996    0.09600000
   14.72805500    4.91499996    0.09600000
   14.72916603    4.91499996    0.05700000
   14.72999954    4.91499996    0.01900000
   14.73111057    4.91499996    0.01900000
   14.73222160    4.91499996    0.01900000
   14.73305511    4.91499996    0.01900000
   14.73416710    4.91499996    0.05700000
   14.73500061    4.91499996    0.09600000
   14.73611164    4.91499996    0.15400000
   14.73722267    4.91499996    0.17299999
   14.73805618    4.91499996    0.17299999
   14.73916721    4.91499996    0.23100001
   14.74000072    4.91499996    0.21200000
   14.74111176    4.91499996    0.15400000
   14.74222279    4.91499996    0.09600000
   14.74305534    4.91499996    0.11500000
   14.74416733    4.91499996    0.11500000
   14.74527836    4.91499996    0.09600000
   14.74611092    4.91499996    0.13400000
   14.74722290    4.91499996    0.23100001
   14.74833393    4.91499996    0.21200000
   14.74916649    4.91499996    0.19200000
   14.75027752    4.91499996    0.25000000
   14.75138855    4.91499996    0.28900000
   14.75222206    4.91499996    0.42399999
   14.75333309    4.91499996    0.32699999
   14.75416660    4.91499996    0.15400000
   14.75527763    4.91499996    0.15400000
   14.75638866    4.91499996    0.21200000
   14.75722218    4.91499996    0.32699999
   14.75833321    4.91499996    0.57800001
   14.75916672    4.91499996    1.00199997
   14.76027775    4.91499996    0.94400001
   14.76138878    4.91499996    0.92500001
   14.76222229    4.91499996    1.13699996
   14.76333332    4.91499996    1.02100003
   14.76416683    4.91499996    1.07900000
   14.76527786    4.91499996    0.88599998
   14.76638889    4.91499996    0.55900002
   14.76722240    4.91499996    0.40400001
   14.76833344    4.91499996    0.42399999
   14.76916599    4.91499996    0.32699999
   14.77027798    4.91499996    0.36600000
   14.77138901    4.91499996    0.30800000
   14.77222157    4.91499996    0.23100001
   14.77333355    4.91499996    0.65499997
   14.77444458    4.91499996    1.19500005
   14.77527714    4.91499996    1.23300004
   14.77638817    4.91499996    1.15600002
   14.77722168    4.91499996    1.34899998
   14.77833271    4.91499996    1.27199996
   14.77916622    4.91499996    1.17499995
   14.78027725    4.91499996    1.33000004
   14.78138828    4.91499996    1.69599998
   14.78222179    4.91499996    1.90799999
   14.78333378    4.91499996    1.90799999
   14.78444481    4.91499996    2.06200004
   14.78527832    4.91499996    2.25500011
   14.78638935    4.91499996    2.37100005
   14.78750038    4.91499996    2.33200002
   14.78833389    4.91499996    2.21600008
   14.78944492    4.91499996    2.25500011
   14.79055595    4.91499996    2.37100005
   14.79138947    4.91499996    2.25500011
   14.79250050    4.91499996    2.35100007
   14.79333401    4.91499996    2.37100005
   14.79444504    4.91499996    2.48600006
   14.79527855    4.91499996    2.48600006
   14.79638958    4.91499996    2.50600004
   14.79750061    4.91499996    2.56299996
   14.79833412    4.91499996    2.52500010
   14.79944515    4.91499996    2.52500010
   14.80027771    4.91499996    2.48600006
   14.80138874    4.91499996    2.52500010
   14.80222225    4.91499996    2.48600006
   14.80333328    4.91499996    2.46700001
   14.80444431    4.91499996    2.56299996
   14.80527782    4.91499996    2.46700001
   14.80638885    4.91499996    2.46700001
   14.80749989    4.91499996    2.40899992
   14.80833340    4.91499996    2.21600008
   14.80944443    4.91499996    2.31299996
   14.81027794    4.91499996    2.31299996
   14.81138897    4.91499996    2.06200004
   14.81250000    4.91499996    2.21600008
   14.81333351    4.91499996    1.75399995
   14.81444454    4.91499996    1.75399995
   14.81527805    4.91499996    1.44500005
   14.81638908    4.91499996    2.06200004
   14.81750011    4.91499996    1.86899996
   14.81833363    4.91499996    1.40699995
   14.81944466    4.91499996    1.07900000
   14.82027817    4.91499996    1.09800005
   14.82138920    4.91499996    0.92500001
   14.82222176    4.91499996    0.65499997
   14.82333374    4.91499996    0.48100001
   14.82444477    4.91499996    0.40400001
   14.82527733    4.91499996    0.69300002
   14.82638836    4.91499996    1.27199996
   14.82750034    4.91499996    1.03999996
   14.82833290    4.91499996    1.09800005
   14.82944393    4.91499996    1.03999996
   14.83027744    4.91499996    0.94400001
   14.83138847    4.91499996    1.38699996
   14.83249950    4.91499996    1.29100001
   14.83333302    4.91499996    1.21399999
   14.83444405    4.91499996    1.34899998
   14.83555508    4.91499996    1.33000004
   14.83638859    4.91499996    1.02100003
   14.83749962    4.91499996    0.82800001
   14.83833313    4.91499996    0.79000002
   14.83944416    4.91499996    0.36600000
   14.84055519    4.91499996    0.25000000
   14.84138870    4.91499996    0.17299999
   14.84249973    4.91499996    0.11500000
   14.84333324    4.91499996    0.05700000
   14.84444427    4.91499996    0.01900000
   14.84555531    4.91499996    0.01900000
   14.84638882    4.91499996    0.01900000
   14.84749985    4.91499996    0.05700000
   14.84861088    4.91499996    0.05700000
   14.84944439    4.91499996    0.05700000
   14.85055637    4.91499996    0.05700000
   14.85138893    4.91499996    0.07700000
   14.85249996    4.91499996    0.15400000
   14.85361195    4.91499996    0.19200000
   14.85444450    4.91499996    0.36600000
   14.85555553    4.91499996    0.65499997
   14.85666752    4.91499996    0.82800001
   14.85750008    4.91499996    0.55900002
   14.85861111    4.91499996    0.26899999
   14.85944462    4.91499996    0.19200000
   14.86055565    4.91499996    0.15400000
   14.86138916    4.91499996    0.15400000
   14.86250019    4.91499996    0.15400000
   14.86361122    4.91499996    0.17299999
   14.86444473    4.91499996    0.23100001
   14.86555576    4.91499996    0.23100001
   14.86666679    4.91499996    0.40400001
   14.86750031    4.91499996    0.51999998
   14.86861134    4.91499996    0.23100001
   14.86944485    4.91499996    0.21200000
   14.87055588    4.91499996    0.25000000
   14.87166691    4.91499996    0.26899999
   14.87250042    4.91499996    0.38499999
   14.87361145    4.91499996    0.79000002
   14.87444496    4.91499996    1.92700005
   14.87555599    4.91499996    1.90799999
   14.87666702    4.91499996    2.02399993
   14.87750053    4.91499996    1.85000002
   14.87861156    4.91499996    1.83099997
   14.87972260    4.91499996    1.86899996
   14.88055611    4.91499996    1.73399997
   14.88166714    4.91499996    1.69599998
   14.88249969    4.91499996    1.33000004
   14.88361073    4.91499996    1.15600002
   14.88444424    4.91499996    1.34899998
   14.88555527    4.91499996    1.42600000
   14.88666630    4.91499996    1.44500005
   14.88749981    4.91499996    1.25300002
   14.88861084    4.91499996    1.07900000
   14.88944435    4.91499996    1.07900000
   14.89055538    4.91499996    0.65499997
   14.89166641    4.91499996    0.53899997
   14.89249992    4.91499996    0.73199999
   14.89361095    4.91499996    0.94400001
   14.89472198    4.91499996    1.54200006
   14.89555550    4.91499996    1.81200004
   14.89666653    4.91499996    1.44500005
   14.89750004    4.91499996    1.19500005
   14.89861107    4.91499996    1.13699996
   14.89972210    4.91499996    1.21399999
   14.90055561    4.91499996    1.30999994
   14.90166664    4.91499996    1.02100003
   14.90277767    4.91499996    0.65499997
   14.90361118    4.91499996    0.67400002
   14.90472221    4.91499996    0.79000002
   14.90555477    4.91499996    0.90600002
   14.90666676    4.91499996    1.13699996
   14.90777779    4.91499996    1.40699995
   14.90861034    4.91499996    2.21600008
   14.90972137    4.91499996    2.52500010
   14.91055489    4.91499996    2.31299996
   14.91166592    4.91499996    2.25500011
   14.91249943    4.91499996    2.02399993
   14.91361046    4.91499996    2.42799997
   14.91472149    4.91499996    2.39000010
   14.91555500    4.91499996    2.19700003
   14.91666698    4.91499996    2.13899994
   14.91777802    4.91499996    2.23600006
   14.91861153    4.91499996    2.37100005
   14.91972256    4.91499996    2.40899992
   14.92055607    4.91499996    2.31299996
   14.92166710    4.91499996    2.56299996
   14.92277813    4.91499996    2.50600004
   14.92361164    4.91499996    2.37100005
   14.92472267    4.91499996    2.31299996
   14.92583370    4.91499996    2.54399991
   14.92666721    4.91499996    2.46700001
   14.92777824    4.91499996    2.56299996
   14.92861176    4.91499996    2.56299996
   14.92972279    4.91499996    2.46700001
   14.93055630    4.91499996    2.48600006
   14.93166733    4.91499996    2.44799995
   14.93277836    4.91499996    2.52500010
   14.93361092    4.91499996    2.62100005
   14.93472195    4.91499996    2.66000009
   14.93555546    4.91499996    1.92700005
   14.93666649    4.91499996    2.13899994
   14.93750000    4.91499996    2.15899992
   14.93861103    4.91499996    2.31299996
   14.93972206    4.91499996    2.23600006
   14.94055557    4.91499996    2.33200002
   14.94166660    4.91499996    2.02399993
   14.94277763    4.91499996    2.11999989
   14.94361115    4.91499996    2.46700001
   14.94472218    4.91499996    2.54399991
   14.94555569    4.91499996    2.56299996
   14.94666672    4.91499996    2.42799997
   14.94750023    4.91499996    2.17799997
   14.94861126    4.91499996    2.08100009
   14.94972229    4.91499996    2.00399995
   14.95055580    4.91499996    1.86899996
   14.95166683    4.91499996    2.10100007
   14.95277786    4.91499996    2.39000010
   14.95361137    4.91499996    2.48600006
   14.95472240    4.91499996    2.37100005
   14.95583344    4.91499996    2.50600004
   14.95666695    4.91499996    2.58299994
   14.95777798    4.91499996    2.56299996
   14.95888901    4.91499996    2.52500010
   14.95972157    4.91499996    2.48600006
   14.96083355    4.91499996    2.29399991
   14.96166611    4.91499996    2.52500010
   14.96277714    4.91499996    2.37100005
   14.96388912    4.91499996    2.37100005
   14.96472168    4.91499996    2.46700001
   14.96583271    4.91499996    2.48600006
   14.96694374    4.91499996    2.42799997
   14.96777725    4.91499996    2.48600006
   14.96888828    4.91499996    2.48600006
   14.96972179    4.91499996    2.27399993
   14.97083282    4.91499996    2.19700003
   14.97194386    4.91499996    1.90799999
   14.97277737    4.91499996    1.81200004
   14.97388840    4.91499996    2.50600004
   14.97499943    4.91499996    2.31299996
   14.97583294    4.91499996    2.35100007
   14.97694397    4.91499996    2.40899992
   14.97777748    4.91499996    1.88900006
   14.97888851    4.91499996    1.09800005
   14.97999954    4.91499996    1.34899998
   14.98083305    4.91499996    2.50600004
   14.98194408    4.91499996    2.39000010
   14.98277760    4.91499996    2.42799997
   14.98388958    4.91499996    2.31299996
   14.98500061    4.91499996    2.62100005
   14.98583317    4.91499996    2.66000009
   14.98694515    4.91499996    2.66000009
   14.98805618    4.91499996    2.67899990
   14.98888874    4.91499996    2.64000010
   14.99000072    4.91499996    2.64000010
   14.99083328    4.91499996    2.67899990
   14.99194431    4.91499996    2.54399991
   14.99305534    4.91499996    2.64000010
   14.99388885    4.91499996    2.54399991
   14.99499989    4.91499996    2.40899992
   14.99583340    4.91499996    1.86899996
   14.99694443    4.91499996    1.73399997
   14.99805546    4.91499996    1.73399997
   14.99888897    4.91499996    1.25300002
   15.00000000    4.91499996    1.29100001
   15.00083351    4.91499996    1.63800001
   15.00194454    4.91499996    1.85000002
   15.00305557    4.91499996    2.15899992
   15.00388908    4.91499996    2.13899994
   15.00500011    4.91499996    1.81200004
   15.00583363    4.91499996    1.71500003
   15.00694466    4.91499996    1.90799999
   15.00777817    4.91499996    1.77300000
   15.00888920    4.91499996    1.79200006
   15.01000023    4.91499996    1.73399997
   15.01083374    4.91499996    1.67700005
   15.01194477    4.91499996    1.79200006
   15.01305580    4.91499996    1.79200006
   15.01388931    4.91499996    1.77300000
   15.01500034    4.91499996    1.54200006
   15.01583290    4.91499996    1.38699996
   15.01694393    4.91499996    1.09800005
   15.01805496    4.91499996    0.90600002
   15.01888847    4.91499996    1.03999996
   15.01999950    4.91499996    1.02100003
   15.02111053    4.91499996    0.94400001
   15.02194405    4.91499996    0.86699998
   15.02305508    4.91499996    0.94400001
   15.02416611    4.91499996    1.00199997
   15.02499962    4.91499996    1.17499995
   15.02611065    4.91499996    1.34899998
   15.02722168    4.91499996    1.30999994
   15.02805519    4.91499996    1.29100001
   15.02916622    4.91499996    1.25300002
   15.02999973    4.91499996    1.38699996
   15.03111076    4.91499996    1.88900006
   15.03222179    4.91499996    1.86899996
   15.03305531    4.91499996    2.11999989
   15.03416729    4.91499996    2.21600008
   15.03527832    4.91499996    2.04299998
   15.03611183    4.91499996    2.06200004
   15.03722286    4.91499996    2.00399995
   15.03805637    4.91499996    2.10100007
   15.03916740    4.91499996    2.10100007
   15.04027843    4.91499996    2.17799997
   15.04111195    4.91499996    2.21600008
   15.04222298    4.91499996    2.37100005
   15.04305553    4.91499996    2.35100007
   15.04416752    4.91499996    2.21600008
   15.04527855    4.91499996    2.29399991
   15.04611111    4.91499996    2.33200002
   15.04722309    4.91499996    2.31299996
   15.04833412    4.91499996    2.02399993
   15.04916668    4.91499996    1.92700005
   15.05027771    4.91499996    1.69599998
   15.05138874    4.91499996    2.02399993
   15.05222225    4.91499996    2.15899992
   15.05333328    4.91499996    2.04299998
   15.05416679    4.91499996    2.11999989
   15.05527782    4.91499996    2.33200002
   15.05638885    4.91499996    1.94700003
   15.05722237    4.91499996    1.96599996
   15.05833340    4.91499996    1.65699995
   15.05944443    4.91499996    1.42600000
   15.06027794    4.91499996    1.65699995
   15.06138897    4.91499996    1.83099997
   15.06250000    4.91499996    1.71500003
   15.06333351    4.91499996    1.77300000
   15.06444454    4.91499996    1.77300000
   15.06527805    4.91499996    1.60000002
   15.06638908    4.91499996    1.25300002
   15.06750011    4.91499996    1.15600002
   15.06833363    4.91499996    1.29100001
   15.06944466    4.91499996    1.58000004
   15.07027817    4.91499996    1.71500003
   15.07138920    4.91499996    1.71500003
   15.07250023    4.91499996    1.61899996
   15.07333374    4.91499996    1.48399997
   15.07444477    4.91499996    1.48399997
   15.07527733    4.91499996    1.90799999
   15.07638836    4.91499996    1.61899996
   15.07750034    4.91499996    1.33000004
   15.07833290    4.91499996    1.07900000
   15.07944393    4.91499996    1.07900000
   15.08055592    4.91499996    1.17499995
   15.08138847    4.91499996    1.07900000
   15.08249950    4.91499996    0.79000002
   15.08333302    4.91499996    0.86699998
   15.08444405    4.91499996    0.67400002
   15.08555508    4.91499996    1.02100003
   15.08638859    4.91499996    1.23300004
   15.08749962    4.91499996    1.13699996
   15.08833313    4.91499996    1.02100003
   15.08944416    4.91499996    1.13699996
   15.09055519    4.91499996    0.98299998
   15.09138870    4.91499996    0.90600002
   15.09249973    4.91499996    0.86699998
   15.09361076    4.91499996    0.88599998
   15.09444427    4.91499996    0.84799999
   15.09555531    4.91499996    0.59700000
   15.09638882    4.91499996    0.73199999
   15.09749985    4.91499996    0.57800001
   15.09861088    4.91499996    0.55900002
   15.09944439    4.91499996    0.53899997
   15.10055637    4.91499996    0.59700000
   15.10166740    4.91499996    0.73199999
   15.10249996    4.91499996    0.79000002
   15.10361195    4.91499996    0.82800001
   15.10444450    4.91499996    0.77100003
   15.10555553    4.91499996    0.71300000
   15.10666752    4.91499996    0.67400002
   15.10750008    4.91499996    0.79000002
   15.10861111    4.91499996    1.11800003
   15.10972214    4.91499996    0.86699998
   15.11055565    4.91499996    0.84799999
   15.11166668    4.91499996    0.77100003
   15.11250019    4.91499996    1.05999994
   15.11361122    4.91499996    1.00199997
   15.11472225    4.91499996    0.98299998
   15.11555576    4.91499996    1.07900000
   15.11666679    4.91499996    1.38699996
   15.11750031    4.91499996    1.07900000
   15.11861134    4.91499996    1.15600002
   15.11972237    4.91499996    1.34899998
   15.12055588    4.91499996    1.60000002
   15.12166691    4.91499996    1.17499995
   15.12250042    4.91499996    1.25300002
   15.12361145    4.91499996    1.27199996
   15.12472248    4.91499996    1.07900000
   15.12555599    4.91499996    0.96300000
   15.12666702    4.91499996    1.07900000
   15.12777805    4.91499996    0.98299998
   15.12861156    4.91499996    1.13699996
   15.12972260    4.91499996    1.23300004
   15.13055611    4.91499996    1.34899998
   15.13166714    4.91499996    1.50300002
   15.13277817    4.91499996    1.58000004
   15.13361073    4.91499996    1.77300000
   15.13472176    4.91499996    1.75399995
   15.13555527    4.91499996    1.44500005
   15.13666630    4.91499996    1.27199996
   15.13749981    4.91499996    1.48399997
   15.13861084    4.91499996    1.44500005
   15.13972187    4.91499996    2.02399993
   15.14055538    4.91499996    1.90799999
   15.14166641    4.91499996    1.71500003
   15.14249992    4.91499996    1.90799999
   15.14361095    4.91499996    1.92700005
   15.14472198    4.91499996    1.90799999
   15.14555550    4.91499996    1.79200006
   15.14666653    4.91499996    1.56099999
   15.14777756    4.91499996    1.34899998
   15.14861107    4.91499996    1.75399995
   15.14972210    4.91499996    1.90799999
   15.15055561    4.91499996    1.88900006
   15.15166664    4.91499996    1.86899996
   15.15249920    4.91499996    1.77300000
   15.15361118    4.91499996    1.94700003
   15.15472221    4.91499996    1.98500001
   15.15555477    4.91499996    1.58000004
   15.15666676    4.91499996    1.07900000
   15.15777779    4.91499996    0.86699998
   15.15861034    4.91499996    0.71300000
   15.15972137    4.91499996    0.30800000
   15.16083336    4.91499996    0.23100001
   15.16166592    4.91499996    0.25000000
   15.16277695    4.91499996    0.36600000
   15.16361046    4.91499996    0.82800001
   15.16472149    4.91499996    1.52199996
   15.16583252    4.91499996    1.38699996
   15.16666698    4.91499996    1.27199996
   15.16777802    4.91499996    0.90600002
   15.16888905    4.91499996    0.73199999
   15.16972256    4.91499996    1.00199997
   15.17083359    4.91499996    1.11800003
   15.17166710    4.91499996    0.86699998
   15.17277813    4.91499996    0.61600000
   15.17361164    4.91499996    0.48100001
   15.17472267    4.91499996    0.38499999
   15.17583370    4.91499996    0.30800000
   15.17666721    4.91499996    0.30800000
   15.17777824    4.91499996    0.30800000
   15.17861176    4.91499996    0.53899997
   15.17972279    4.91499996    0.53899997
   15.18083382    4.91499996    0.38499999
   15.18166733    4.91499996    0.36600000
   15.18277836    4.91499996    0.50099999
   15.18388939    4.91499996    0.61600000
   15.18472195    4.91499996    0.86699998
   15.18583298    4.91499996    0.73199999
   15.18666649    4.91499996    0.82800001
   15.18777752    4.91499996    0.73199999
   15.18888855    4.91499996    0.82800001
   15.18972206    4.91499996    0.61600000
   15.19083309    4.91499996    0.46200001
   15.19166660    4.91499996    1.09800005
   15.19277763    4.91499996    1.54200006
   15.19388866    4.91499996    1.48399997
   15.19472218    4.91499996    1.40699995
   15.19583321    4.91499996    1.30999994
   15.19666672    4.91499996    1.29100001
   15.19777775    4.91499996    0.71300000
   15.19888878    4.91499996    0.46200001
   15.19972229    4.91499996    0.28900000
   15.20083332    4.91499996    0.13400000
   15.20166683    4.91499996    0.09600000
   15.20277786    4.91499996    0.09600000
   15.20388889    4.91499996    0.09600000
   15.20472240    4.91499996    0.09600000
   15.20583344    4.91499996    0.11500000
   15.20694447    4.91499996    0.11500000
   15.20777798    4.91499996    0.09600000
   15.20888901    4.91499996    0.15400000
   15.20972157    4.91499996    0.21200000
   15.21083355    4.91499996    0.30800000
   15.21194458    4.91499996    0.25000000
   15.21277714    4.91499996    0.19200000
   15.21388912    4.91499996    0.21200000
   15.21472168    4.91499996    0.25000000
   15.21583271    4.91499996    0.23100001
   15.21694374    4.91499996    0.15400000
   15.21777725    4.91499996    0.19200000
   15.21888828    4.91499996    0.42399999
   15.21972179    4.91499996    0.46200001
   15.22083282    4.91499996    0.59700000
   15.22194386    4.91499996    0.79000002
   15.22277737    4.91499996    0.61600000
   15.22388840    4.91499996    0.38499999
   15.22472191    4.91499996    0.30800000
   15.22583294    4.91499996    0.42399999
   15.22694397    4.91499996    0.71300000
   15.22777748    4.91499996    1.07900000
   15.22888851    4.91499996    0.80900002
   15.22972202    4.91499996    0.61600000
   15.23083305    4.91499996    0.65499997
   15.23194408    4.91499996    0.46200001
   15.23277760    4.91499996    0.23100001
   15.23388958    4.91499996    0.15400000
   15.23472214    4.91499996    0.15400000
   15.23583317    4.91499996    0.21200000
   15.23694515    4.91499996    0.48100001
   15.23777771    4.91499996    1.09800005
   15.23888874    4.91499996    1.09800005
   15.23972225    4.91499996    0.92500001
   15.24083328    4.91499996    1.19500005
   15.24194431    4.91499996    1.52199996
   15.24277782    4.91499996    1.61899996
   15.24388885    4.91499996    1.40699995
   15.24472237    4.91499996    0.79000002
   15.24583340    4.91499996    0.50099999
   15.24694443    4.91499996    0.42399999
   15.24777794    4.91499996    0.25000000
   15.24888897    4.91499996    0.23100001
   15.25000000    4.91499996    0.34599999
   15.25083351    4.91499996    0.42399999
   15.25194454    4.91499996    0.36600000
   15.25277805    4.91499996    0.40400001
   15.25388908    4.91499996    0.36600000
   15.25500011    4.91499996    0.25000000
   15.25583363    4.91499996    0.17299999
   15.25694466    4.91499996    0.17299999
   15.25777817    4.91499996    0.28900000
   15.25888920    4.91499996    0.51999998
   15.26000023    4.91499996    0.79000002
   15.26083374    4.91499996    0.65499997
   15.26194477    4.91499996    0.63599998
   15.26277733    4.91499996    0.50099999
   15.26388931    4.91499996    0.28900000
   15.26500034    4.91499996    0.15400000
   15.26583290    4.91499996    0.09600000
   15.26694393    4.91499996    0.13400000
   15.26777744    4.91499996    0.21200000
   15.26888847    4.91499996    0.38499999
   15.26999950    4.91499996    0.48100001
   15.27083302    4.91499996    0.50099999
   15.27194405    4.91499996    0.40400001
   15.27277756    4.91499996    0.38499999
   15.27388859    4.91499996    0.26899999
   15.27472210    4.91499996    0.23100001
   15.27583313    4.91499996    0.15400000
   15.27694416    4.91499996    0.13400000
   15.27777767    4.91499996    0.15400000
   15.27888870    4.91499996    0.15400000
   15.27999973    4.91499996    0.17299999
   15.28083324    4.91499996    0.23100001
   15.28194427    4.91499996    0.23100001
   15.28277779    4.91499996    0.36600000
   15.28388977    4.91499996    0.63599998
   15.28500080    4.91499996    1.42600000
   15.28583336    4.91499996    1.54200006
   15.28694534    4.91499996    1.38699996
   15.28805637    4.91499996    1.11800003
   15.28888893    4.91499996    1.38699996
   15.29000092    4.91499996    1.46500003
   15.29083347    4.91499996    1.38699996
   15.29194450    4.91499996    1.00199997
   15.29305553    4.91499996    0.77100003
   15.29388905    4.91499996    0.65499997
   15.29500008    4.91499996    0.53899997
   15.29583359    4.91499996    0.50099999
   15.29694462    4.91499996    0.55900002
   15.29777813    4.91499996    0.34599999
   15.29888916    4.91499996    0.32699999
   15.30000019    4.91499996    0.46200001
   15.30083370    4.91499996    0.46200001
   15.30194473    4.91499996    0.48100001
   15.30277824    4.91499996    0.38499999
   15.30388927    4.91499996    0.48100001
   15.30500031    4.91499996    0.46200001
   15.30583382    4.91499996    0.40400001
   15.30694485    4.91499996    0.36600000
   15.30777836    4.91499996    0.34599999
   15.30888939    4.91499996    0.36600000
   15.31000042    4.91499996    0.30800000
   15.31083393    4.91499996    0.25000000
   15.31194496    4.91499996    0.26899999
   15.31277752    4.91499996    0.21200000
   15.31388950    4.91499996    0.28900000
   15.31500053    4.91499996    0.28900000
   15.31583309    4.91499996    0.32699999
   15.31694412    4.91499996    0.28900000
   15.31777763    4.91499996    0.23100001
   15.31888866    4.91499996    0.17299999
   15.31999969    4.91499996    0.17299999
   15.32083321    4.91499996    0.21200000
   15.32194424    4.91499996    0.38499999
   15.32277775    4.91499996    0.50099999
   15.32388878    4.91499996    0.86699998
   15.32499981    4.91499996    1.02100003
   15.32583332    4.91499996    0.86699998
   15.32694435    4.91499996    0.92500001
   15.32777786    4.91499996    0.96300000
   15.32888889    4.91499996    0.84799999
   15.32999992    4.91499996    0.86699998
   15.33083344    4.91499996    0.84799999
   15.33194447    4.91499996    0.84799999
   15.33277798    4.91499996    0.65499997
   15.33388901    4.91499996    0.57800001
   15.33500004    4.91499996    0.50099999
   15.33583260    4.91499996    0.44299999
   15.33694458    4.91499996    0.40400001
   15.33777714    4.91499996    0.19200000
   15.33888817    4.91499996    0.07700000
   15.33972168    4.91499996    0.05700000
   15.34083271    4.91499996    0.07700000
   15.34194374    4.91499996    0.15400000
   15.34277725    4.91499996    0.23100001
   15.34388828    4.91499996    0.25000000
   15.34472179    4.91499996    0.15400000
   15.34583282    4.91499996    0.09600000
   15.34694386    4.91499996    0.03800000
   15.34777737    4.91499996    0.01900000
   15.37416649    4.91499996    0.01900000
   15.37527752    4.91499996    0.01900000
   15.37611103    4.91499996    0.01900000
   15.37722206    4.91499996    0.05700000
   15.37805557    4.91499996    0.09600000
   15.37916660    4.91499996    0.09600000
   15.38027763    4.91499996    0.09600000
   15.38111115    4.91499996    0.15400000
   15.38222218    4.91499996    0.15400000
   15.38333321    4.91499996    0.15400000
   15.38416672    4.91499996    0.01900000
   15.38833332    4.91499996    0.01900000
   15.38916683    4.91499996    0.03800000
   15.39027786    4.91499996    0.03800000
