    HOUR (UT)     SKY TESTER    SUN TESTER
   15.22305489    2.19700003    0.01900000
   15.22472191    2.39000010    0.01900000
   15.22638798    2.67899990    0.03800000
   15.22805500    2.98699999    0.05700000
   15.22972202    3.41199994    0.07700000
   15.23138809    4.02799988    0.09600000
   15.23277760    4.91499996    0.13400000
   15.23444462    4.91499996    0.30800000
   15.23611164    4.91499996    0.30800000
   15.23777771    4.91499996    0.32699999
   15.23944473    4.91499996    0.34599999
   15.24111176    4.91499996    0.36600000
   15.24277782    4.91499996    0.36600000
   15.24444485    4.91499996    0.38499999
   15.24611092    4.91499996    0.36600000
   15.24777794    4.91499996    0.34599999
   15.24944496    4.91499996    0.32699999
   15.25111103    4.91499996    0.28900000
   15.25249958    4.91499996    0.36600000
   15.25416660    4.91499996    0.36600000
   15.25583363    4.91499996    0.36600000
   15.25749969    4.91499996    0.38499999
   15.25916672    4.91499996    0.38499999
   15.26083374    4.91499996    0.38499999
   15.26249981    4.91499996    0.38499999
   15.26416683    4.91499996    0.36600000
   15.26583290    4.91499996    0.36600000
   15.26749992    4.91499996    0.36600000
   15.26916599    4.91499996    0.36600000
   15.27083302    4.91499996    0.40400001
   15.27222157    4.91499996    0.40400001
   15.27388859    4.91499996    0.38499999
   15.27555561    4.91499996    0.40400001
   15.27722168    4.91499996    0.44299999
   15.27944374    4.91499996    0.46200001
   15.28194427    4.91499996    0.48100001
   15.28249931    4.91499996    0.48100001
   15.28277779    4.91499996    0.46200001
   15.28416729    4.91499996    0.46200001
   15.28444481    4.91499996    0.46200001
   15.28527832    4.91499996    0.44299999
   15.28611183    4.91499996    0.44299999
   15.28638935    4.91499996    0.48100001
   15.28833389    4.91499996    0.48100001
   15.29027843    4.91499996    0.51999998
   15.29111195    4.91499996    0.48100001
   15.29194450    4.91499996    0.46200001
   15.29388905    4.91499996    0.40400001
   15.29583359    4.91499996    0.48100001
   15.29750061    4.91499996    0.50099999
   15.29944515    4.91499996    0.44299999
   15.30138874    4.91499996    0.51999998
   15.30305576    4.91499996    0.51999998
   15.30500031    4.91499996    0.57800001
   15.30694485    4.91499996    0.63599998
   15.30861092    4.91499996    0.65499997
   15.31055546    4.91499996    0.59700000
   15.31222248    4.91499996    0.65499997
   15.31416702    4.91499996    0.67400002
   15.31583309    4.91499996    0.69300002
   15.31777763    4.91499996    0.65499997
   15.31944466    4.91499996    0.67400002
   15.32138920    4.91499996    0.67400002
   15.32333374    4.91499996    0.65499997
   15.32499981    4.91499996    0.63599998
   15.32694435    4.91499996    0.59700000
   15.32888889    4.91499996    0.55900002
   15.33055592    4.91499996    0.51999998
   15.33249950    4.91499996    0.51999998
   15.33416653    4.91499996    0.48100001
   15.33611107    4.91499996    0.48100001
   15.33777714    4.91499996    0.46200001
   15.33972168    4.91499996    0.42399999
   15.34166622    4.91499996    0.46200001
   15.34333324    4.91499996    0.46200001
   15.34527779    4.91499996    0.46200001
   15.34694386    4.91499996    0.44299999
   15.34888840    4.91499996    0.42399999
   15.35083389    4.91499996    0.42399999
   15.35249996    4.91499996    0.42399999
   15.35444450    4.91499996    0.40400001
   15.35611153    4.91499996    0.36600000
   15.35805607    4.91499996    0.36600000
   15.36000061    4.91499996    0.36600000
   15.36166668    4.91499996    0.36600000
   15.36361122    4.91499996    0.34599999
   15.36527824    4.91499996    0.34599999
   15.36722279    4.91499996    0.34599999
   15.36888885    4.91499996    0.36600000
   15.37083340    4.91499996    0.34599999
   15.37250042    4.91499996    0.36600000
   15.37444496    4.91499996    0.34599999
   15.37638855    4.91499996    0.34599999
   15.37805557    4.91499996    0.30800000
   15.38000011    4.91499996    0.19200000
   15.38166714    4.91499996    0.15400000
   15.38361073    4.91499996    0.03800000
   15.38555527    4.91499996    0.01900000
   15.38722229    4.76100016    0.01900000
   15.38916683    4.04799986    0.01900000
   15.39277744    2.60200000    0.01900000
   15.39805508    2.17799997    0.01900000
   15.39999962    3.00699997    0.01900000
   15.40194416    4.91499996    0.03800000
   15.40361118    4.91499996    0.05700000
   15.40555477    4.91499996    0.23100001
   15.40722179    4.91499996    0.51999998
   15.40944386    4.91499996    0.48100001
   15.41138840    4.91499996    0.46200001
   15.41333294    4.91499996    0.46200001
   15.41416645    4.91499996    0.46200001
   15.41527748    4.91499996    0.46200001
   15.41694450    4.91499996    0.51999998
   15.41805553    4.91499996    0.51999998
   15.42083359    4.91499996    0.57800001
   15.42111111    4.91499996    0.57800001
   15.46000004    4.91499996    0.05700000
   15.46277714    4.91499996    0.09600000
   15.46361065    4.91499996    0.11500000
   15.46444416    4.91499996    0.15400000
   15.46583271    4.91499996    0.23100001
   15.46888828    4.91499996    0.65499997
   15.46944427    4.91499996    0.75099999
   15.46999931    4.91499996    0.79000002
   15.47194386    4.91499996    0.80900002
   15.47388840    4.91499996    0.80900002
   15.47444439    4.91499996    0.79000002
   15.47638798    4.91499996    0.80900002
   15.47694397    4.91499996    0.80900002
   15.47722149    4.91499996    0.80900002
   15.47777748    4.91499996    0.79000002
   15.47833252    4.91499996    0.79000002
   15.47861099    4.91499996    0.80900002
   15.47916603    4.91499996    0.80900002
   15.47944355    4.91499996    0.82800001
   15.47999954    4.91499996    0.84799999
   15.48027706    4.91499996    0.86699998
   15.48083305    4.91499996    0.86699998
   15.48138809    4.91499996    0.86699998
   15.48166656    4.91499996    0.86699998
   15.48222160    4.91499996    0.88599998
   15.48249912    4.91499996    0.88599998
   15.48305511    4.91499996    0.86699998
   15.48333359    4.91499996    0.86699998
   15.48388958    4.91499996    0.86699998
   15.48444462    4.91499996    0.86699998
   15.48472214    4.91499996    0.86699998
   15.48527813    4.91499996    0.88599998
   15.48555565    4.91499996    0.86699998
   15.48611164    4.91499996    0.86699998
   15.48638916    4.91499996    0.88599998
   15.48694515    4.91499996    0.88599998
   15.48750019    4.91499996    0.88599998
   15.48777771    4.91499996    0.86699998
   15.48833370    4.91499996    0.88599998
   15.48861122    4.91499996    0.86699998
   15.48916721    4.91499996    0.86699998
   15.48944473    4.91499996    0.86699998
   15.49000072    4.91499996    0.86699998
   15.49027824    4.91499996    0.84799999
   15.49083328    4.91499996    0.84799999
   15.49111176    4.91499996    0.88599998
   15.49166679    4.91499996    0.90600002
   15.49222279    4.91499996    0.90600002
   15.49250031    4.91499996    0.92500001
   15.49305534    4.91499996    0.94400001
   15.49333382    4.91499996    0.94400001
   15.49555588    4.91499996    0.96300000
   15.49722290    4.91499996    1.00199997
   15.50027752    4.91499996    0.98299998
   15.50194454    4.91499996    0.96300000
   15.50222206    4.91499996    0.96300000
   15.50277805    4.91499996    1.00199997
   15.50305557    4.91499996    1.02100003
   15.50361156    4.91499996    1.02100003
   15.50416660    4.91499996    1.00199997
   15.50444412    4.91499996    0.98299998
   15.50500011    4.91499996    0.98299998
   15.50527763    4.91499996    1.00199997
   15.50583363    4.91499996    0.98299998
   15.50611115    4.91499996    0.96300000
   15.50666714    4.91499996    0.94400001
   15.50694466    4.91499996    0.90600002
   15.50749969    4.91499996    0.90600002
   15.50777817    4.91499996    0.88599998
   15.50833321    4.91499996    0.88599998
   15.50861073    4.91499996    0.90600002
   15.50916672    4.91499996    0.90600002
   15.50972176    4.91499996    0.90600002
   15.51000023    4.91499996    0.88599998
   15.51055527    4.91499996    0.88599998
   15.51083374    4.91499996    0.90600002
   15.51138878    4.91499996    0.88599998
   15.51166630    4.91499996    0.88599998
   15.51222229    4.91499996    0.90600002
   15.51249981    4.91499996    0.90600002
   15.51305580    4.91499996    0.90600002
   15.51361084    4.91499996    0.90600002
   15.51388931    4.91499996    0.90600002
   15.51444435    4.91499996    0.90600002
   15.51472187    4.91499996    0.90600002
   15.51527786    4.91499996    0.86699998
   15.51555538    4.91499996    0.84799999
   15.51611137    4.91499996    0.84799999
   15.51638889    4.91499996    0.84799999
   15.51694393    4.91499996    0.86699998
   15.51749992    4.91499996    0.88599998
   15.51777744    4.91499996    0.88599998
   15.51833344    4.91499996    0.90600002
   15.51861095    4.91499996    0.92500001
   15.52055550    4.91499996    0.88599998
   15.52361107    4.91499996    0.90600002
   15.52416611    4.91499996    0.88599998
   15.52444458    4.91499996    0.90600002
   15.52499962    4.91499996    0.94400001
   15.52527714    4.91499996    0.96300000
   15.52583313    4.91499996    0.94400001
   15.52611065    4.91499996    0.96300000
   15.52666664    4.91499996    0.98299998
   15.52722168    4.91499996    0.98299998
   15.52750015    4.91499996    0.98299998
   15.52805519    4.91499996    0.96300000
   15.52833271    4.91499996    0.94400001
   15.52888870    4.91499996    0.92500001
   15.52916622    4.91499996    0.90600002
   15.52972221    4.91499996    0.88599998
   15.53027725    4.91499996    0.88599998
   15.53055573    4.91499996    0.90600002
   15.53111076    4.91499996    0.88599998
   15.53138828    4.91499996    0.88599998
   15.53194427    4.91499996    0.90600002
   15.53222179    4.91499996    0.86699998
   15.53277779    4.91499996    0.88599998
   15.53305531    4.91499996    0.90600002
   15.53361130    4.91499996    0.90600002
   15.53388977    4.91499996    0.90600002
   15.53444481    4.91499996    0.90600002
   15.53472233    4.91499996    0.92500001
   15.53527832    4.91499996    0.96300000
   15.53583336    4.91499996    0.98299998
   15.53611183    4.91499996    0.98299998
   15.53666687    4.91499996    1.00199997
   15.53694534    4.91499996    1.00199997
   15.53750038    4.91499996    1.02100003
   15.53916740    4.91499996    0.94400001
   15.54138947    4.91499996    0.92500001
   15.54166698    4.91499996    0.90600002
   15.54222298    4.91499996    0.90600002
   15.54250050    4.91499996    0.92500001
   15.54305553    4.91499996    0.92500001
   15.54361153    4.91499996    0.92500001
   15.54388905    4.91499996    0.92500001
   15.54444504    4.91499996    0.90600002
   15.54472256    4.91499996    0.88599998
   15.54527855    4.91499996    0.88599998
   15.54583359    4.91499996    0.86699998
   15.54611111    4.91499996    0.86699998
   15.54666710    4.91499996    0.82800001
   15.54694462    4.91499996    0.82800001
   15.54750061    4.91499996    0.80900002
   15.54777813    4.91499996    0.79000002
   15.54833412    4.91499996    0.80900002
   15.54888916    4.91499996    0.82800001
   15.54916668    4.91499996    0.80900002
   15.54972267    4.91499996    0.79000002
   15.55000019    4.91499996    0.71300000
   15.55055618    4.91499996    0.63599998
   15.55083370    4.91499996    0.51999998
   15.55138874    4.91499996    0.40400001
   15.55166721    4.91499996    0.32699999
   15.55222225    4.91499996    0.25000000
   15.55277824    4.91499996    0.17299999
   15.55305576    4.91499996    0.15400000
   15.55361176    4.91499996    0.15400000
   15.55388927    4.91499996    0.13400000
   15.55444431    4.91499996    0.07700000
   15.55472279    4.91499996    0.05700000
   15.55527782    4.91499996    0.05700000
   15.55583382    4.91499996    0.03800000
   15.55611134    4.91499996    0.03800000
   15.55777836    4.91499996    0.03800000
   15.56000042    4.91499996    0.03800000
   15.56027794    4.91499996    0.03800000
   15.56083393    4.91499996    0.03800000
   15.56111145    4.91499996    0.03800000
   15.56166649    4.91499996    0.05700000
   15.56222248    4.91499996    0.05700000
   15.56250000    4.91499996    0.05700000
   15.56305599    4.91499996    0.05700000
   15.56333351    4.91499996    0.05700000
   15.56388950    4.91499996    0.05700000
   15.56416702    4.91499996    0.03800000
   15.56472206    4.91499996    0.03800000
   15.56500053    4.91499996    0.03800000
   15.56555557    4.91499996    0.03800000
   15.56611156    4.91499996    0.03800000
   15.56638908    4.91499996    0.03800000
   15.56694412    4.91499996    0.03800000
   15.56722260    4.91499996    0.03800000
   15.56777763    4.91499996    0.03800000
   15.56805515    4.85699987    0.03800000
   15.56861115    4.56799984    0.03800000
   15.56888866    4.35599995    0.03800000
   15.56944466    4.26000023    0.03800000
   15.56999969    4.33699989    0.03800000
   15.57027817    4.37500000    0.01900000
   15.57055569    3.87400007    0.03800000
   15.57111073    3.48900008    0.03800000
   15.57166672    3.72000003    0.03800000
   15.57194424    4.18300009    0.03800000
   15.57250023    4.81899977    0.03800000
   15.57277775    4.91499996    0.03800000
   15.57333374    4.91499996    0.03800000
   15.57388878    4.91499996    0.03800000
   15.57416630    4.91499996    0.03800000
   15.57472229    4.91499996    0.05700000
   15.57638836    4.91499996    0.03800000
   15.57861137    4.91499996    0.03800000
   15.57888889    4.91499996    0.03800000
   15.57944393    4.91499996    0.03800000
   15.57972240    4.91499996    0.03800000
   15.58027744    4.80000019    0.03800000
   15.58055592    4.62599993    0.03800000
   15.58111095    4.70300007    0.03800000
   15.58166695    4.76100016    0.01900000
   15.58194447    4.76100016    0.01900000
   15.58249950    4.68400002    0.03800000
   15.58277798    4.60699987    0.01900000
   15.58333302    4.49100018    0.01900000
   15.58361053    4.22100019    0.01900000
   15.58416653    3.87400007    0.01900000
   15.58472157    3.81599998    0.01900000
   15.58500004    3.91300011    0.01900000
   15.58555508    3.99000001    0.01900000
   15.58583260    3.99000001    0.01900000
   15.58638859    3.97099996    0.01900000
   15.58666611    4.02799988    0.01900000
   15.58722210    4.14400005    0.01900000
   15.58749962    4.24100018    0.01900000
   15.58805561    4.31799984    0.01900000
   15.58833313    4.39499998    0.01900000
   15.58888817    4.51000023    0.01900000
   15.58944416    4.68400002    0.01900000
   15.58972168    4.78000021    0.01900000
   15.59027767    4.76100016    0.01900000
   15.59055519    4.68400002    0.01900000
   15.59111118    4.58799982    0.03800000
   15.59138870    4.60699987    0.03800000
   15.59194374    4.72200012    0.03800000
   15.59249973    4.83799982    0.03800000
   15.59277725    4.91499996    0.03800000
   15.59333324    4.91499996    0.03800000
   15.59499931    4.91499996    0.05700000
   15.59722233    4.91499996    0.07700000
   15.59749985    4.91499996    0.07700000
   15.59805489    4.91499996    0.07700000
   15.59861088    4.91499996    0.07700000
   15.59888840    4.91499996    0.07700000
   15.59944439    4.91499996    0.07700000
   15.59972191    4.91499996    0.09600000
   15.60027790    4.91499996    0.11500000
   15.60083389    4.91499996    0.13400000
   15.60111141    4.91499996    0.21200000
   15.60166740    4.91499996    0.32699999
   15.60194492    4.91499996    0.48100001
   15.60249996    4.91499996    0.57800001
   15.60277843    4.91499996    0.69300002
   15.60333347    4.91499996    0.82800001
   15.60361195    4.91499996    0.90600002
   15.60416698    4.91499996    0.94400001
   15.60472298    4.91499996    0.94400001
   15.60500050    4.91499996    0.92500001
   15.60555553    4.91499996    0.88599998
   15.60611153    4.91499996    0.88599998
   15.60666752    4.91499996    0.86699998
   15.60722256    4.91499996    0.86699998
   15.60777855    4.91499996    0.88599998
   15.60861111    4.91499996    0.92500001
   15.60916710    4.91499996    0.92500001
   15.60972214    4.91499996    0.88599998
   15.61027813    4.91499996    0.88599998
   15.61083412    4.91499996    0.86699998
   15.61166668    4.91499996    0.86699998
   15.62472248    4.91499996    0.55900002
   15.62638855    4.91499996    0.55900002
   15.62833309    4.91499996    0.51999998
   15.62972260    4.91499996    0.55900002
   15.63027763    4.91499996    0.57800001
   15.63055611    4.91499996    0.57800001
   15.63111115    4.91499996    0.57800001
   15.63138866    4.91499996    0.55900002
   15.63194466    4.91499996    0.55900002
   15.63249969    4.91499996    0.55900002
   15.63277817    4.91499996    0.53899997
   15.63333321    4.91499996    0.53899997
   15.63361073    4.91499996    0.53899997
   15.63416672    4.91499996    0.55900002
   15.63444424    4.91499996    0.55900002
   15.63500023    4.91499996    0.57800001
   15.63527775    4.91499996    0.57800001
   15.63583279    4.91499996    0.51999998
   15.63611126    4.91499996    0.44299999
   15.63666630    4.91499996    0.40400001
   15.63722229    4.91499996    0.40400001
   15.63749981    4.91499996    0.40400001
   15.63805580    4.91499996    0.40400001
   15.63833332    4.91499996    0.40400001
   15.63888836    4.91499996    0.38499999
   15.63916683    4.91499996    0.38499999
   15.63972187    4.91499996    0.40400001
   15.64027786    4.91499996    0.42399999
   15.64055538    4.91499996    0.44299999
   15.64111137    4.91499996    0.46200001
   15.64138889    4.91499996    0.48100001
   15.64194393    4.91499996    0.48100001
   15.64222240    4.91499996    0.51999998
   15.64277744    4.91499996    0.57800001
   15.64305496    4.91499996    0.61600000
   15.64361095    4.91499996    0.67400002
   15.64416695    4.91499996    0.69300002
   15.64444447    4.91499996    0.69300002
   15.64499950    4.91499996    0.67400002
   15.64527798    4.91499996    0.67400002
   15.64583302    4.91499996    0.69300002
   15.64611053    4.91499996    0.69300002
   15.64666653    4.91499996    0.67400002
   15.64694405    4.91499996    0.67400002
   15.64750004    4.91499996    0.67400002
   15.64777756    4.91499996    0.65499997
   15.64833355    4.91499996    0.63599998
   15.64888859    4.91499996    0.61600000
   15.64916611    4.91499996    0.59700000
   15.64972210    4.91499996    0.59700000
   15.64999962    4.91499996    0.59700000
   15.65055561    4.91499996    0.55900002
   15.65083313    4.91499996    0.51999998
   15.65138817    4.91499996    0.50099999
   15.65194416    4.91499996    0.50099999
   15.65222168    4.91499996    0.51999998
   15.65277767    4.91499996    0.48100001
   15.65333271    4.91499996    0.44299999
   15.65361118    4.91499996    0.46200001
   15.65416622    4.91499996    0.44299999
   15.65444374    4.91499996    0.44299999
   15.65499973    4.91499996    0.42399999
   15.65666676    4.91499996    0.46200001
   15.65888882    4.91499996    0.48100001
   15.65944386    4.91499996    0.51999998
   15.65972137    4.91499996    0.51999998
   15.66027737    4.91499996    0.51999998
   15.66083336    4.91499996    0.48100001
   15.66111088    4.91499996    0.48100001
   15.66166592    4.91499996    0.48100001
   15.66194439    4.91499996    0.50099999
   15.66249943    4.91499996    0.50099999
   15.66277695    4.91499996    0.51999998
   15.66333294    4.91499996    0.51999998
   15.66388893    4.91499996    0.48100001
   15.66416645    4.91499996    0.48100001
   15.66472149    4.91499996    0.48100001
   15.66499996    4.91499996    0.48100001
   15.66555500    4.91499996    0.48100001
   15.66611099    4.91499996    0.48100001
   15.66638851    4.91499996    0.51999998
   15.66694450    4.91499996    0.53899997
   15.66722298    4.91499996    0.55900002
   15.66777802    4.91499996    0.53899997
   15.66805553    4.91499996    0.51999998
   15.66861153    4.91499996    0.51999998
   15.66888905    4.91499996    0.53899997
   15.66944504    4.91499996    0.51999998
   15.67000008    4.91499996    0.51999998
   15.67027855    4.91499996    0.55900002
   15.67083359    4.91499996    0.59700000
   15.67111111    4.91499996    0.63599998
   15.67166710    4.91499996    0.65499997
   15.67194462    4.91499996    0.67400002
   15.67250061    4.91499996    0.65499997
   15.67305565    4.91499996    0.67400002
   15.67333412    4.91499996    0.67400002
   15.67388916    4.91499996    0.69300002
   15.67416668    4.91499996    0.69300002
   15.67472267    4.91499996    0.71300000
   15.67500019    4.91499996    0.71300000
   15.67555618    4.91499996    0.69300002
   15.67583370    4.91499996    0.67400002
   15.67638874    4.91499996    0.65499997
   15.67694473    4.91499996    0.65499997
   15.67722225    4.91499996    0.63599998
   15.67777824    4.91499996    0.65499997
   15.67805576    4.91499996    0.63599998
   15.67861176    4.91499996    0.65499997
   15.67888927    4.91499996    0.63599998
   15.67944431    4.91499996    0.61600000
   15.67972279    4.91499996    0.59700000
   15.68027782    4.91499996    0.55900002
   15.68055630    4.91499996    0.55900002
   15.68111134    4.91499996    0.53899997
   15.68166733    4.91499996    0.55900002
   15.68194485    4.91499996    0.61600000
   15.68361092    4.91499996    0.67400002
   15.68583298    4.91499996    0.57800001
   15.68611145    4.91499996    0.55900002
   15.68666649    4.91499996    0.53899997
   15.68722248    4.91499996    0.53899997
   15.68750000    4.91499996    0.51999998
   15.68805599    4.91499996    0.51999998
   15.68833351    4.91499996    0.48100001
   15.68888855    4.91499996    0.46200001
   15.68916702    4.91499996    0.46200001
   15.68972206    4.91499996    0.46200001
   15.69027805    4.91499996    0.48100001
   15.69055557    4.91499996    0.48100001
   15.69111156    4.91499996    0.46200001
   15.69138908    4.91499996    0.46200001
   15.69194412    4.91499996    0.46200001
   15.69222260    4.91499996    0.48100001
   15.69277763    4.91499996    0.48100001
   15.69305515    4.91499996    0.46200001
   15.69361115    4.91499996    0.44299999
   15.69416714    4.91499996    0.44299999
   15.69444466    4.91499996    0.44299999
   15.69499969    4.91499996    0.42399999
   15.69527817    4.91499996    0.44299999
   15.69583321    4.91499996    0.44299999
   15.69611073    4.91499996    0.46200001
   15.69666672    4.91499996    0.48100001
   15.69694424    4.91499996    0.50099999
   15.69750023    4.91499996    0.51999998
   15.69805527    4.91499996    0.51999998
   15.69833374    4.91499996    0.51999998
   15.69888878    4.91499996    0.53899997
   15.69916630    4.91499996    0.53899997
   15.69972229    4.91499996    0.55900002
   15.69999981    4.91499996    0.57800001
   15.70055580    4.91499996    0.55900002
   15.70083332    4.91499996    0.53899997
   15.70138836    4.91499996    0.51999998
   15.70194435    4.91499996    0.53899997
   15.70222187    4.91499996    0.55900002
   15.70277786    4.91499996    0.53899997
   15.70305538    4.91499996    0.51999998
   15.70361137    4.91499996    0.51999998
   15.70388889    4.91499996    0.55900002
   15.70444393    4.91499996    0.55900002
   15.70472240    4.91499996    0.55900002
   15.70527744    4.91499996    0.55900002
   15.70555496    4.91499996    0.57800001
   15.70611095    4.91499996    0.57800001
   15.70638847    4.91499996    0.59700000
   15.70694447    4.91499996    0.61600000
   15.70749950    4.91499996    0.61600000
   15.70777798    4.91499996    0.61600000
   15.70833302    4.91499996    0.61600000
   15.70888901    4.91499996    0.61600000
   15.71027756    4.91499996    0.65499997
   15.71249962    4.91499996    0.57800001
   15.71305561    4.91499996    0.61600000
   15.71333313    4.91499996    0.61600000
   15.71388912    4.91499996    0.61600000
   15.71416664    4.91499996    0.63599998
   15.71472168    4.91499996    0.59700000
   15.71527767    4.91499996    0.59700000
   15.71555519    4.91499996    0.57800001
   15.71611118    4.91499996    0.57800001
   15.71638870    4.91499996    0.57800001
   15.71694374    4.91499996    0.57800001
   15.71722221    4.91499996    0.55900002
   15.71777725    4.91499996    0.57800001
   15.71805477    4.91499996    0.59700000
   15.71861076    4.91499996    0.57800001
   15.71888828    4.91499996    0.55900002
   15.71944427    4.91499996    0.55900002
   15.71972179    4.91499996    0.57800001
   15.72027779    4.91499996    0.59700000
   15.72055531    4.91499996    0.59700000
   15.72111034    4.91499996    0.59700000
   15.72166634    4.91499996    0.61600000
   15.72194386    4.91499996    0.61600000
   15.72249985    4.91499996    0.63599998
   15.72277737    4.91499996    0.63599998
   15.72333336    4.91499996    0.61600000
   15.72361088    4.91499996    0.59700000
   15.72416592    4.91499996    0.59700000
   15.72472191    4.91499996    0.57800001
   15.72499943    4.91499996    0.55900002
   15.72555542    4.91499996    0.55900002
   15.72583294    4.91499996    0.51999998
   15.72638798    4.91499996    0.50099999
   15.72666645    4.91499996    0.50099999
   15.72722149    4.91499996    0.50099999
   15.72777748    4.91499996    0.50099999
   15.72805500    4.91499996    0.48100001
   15.72861099    4.91499996    0.48100001
   15.72888851    4.91499996    0.48100001
   15.72944355    4.91499996    0.44299999
   15.72972202    4.91499996    0.38499999
   15.73027706    4.91499996    0.38499999
   15.73083305    4.91499996    0.36600000
   15.73111057    4.91499996    0.36600000
   15.73166656    4.91499996    0.36600000
   15.73194408    4.91499996    0.36600000
   15.73249912    4.91499996    0.36600000
   15.73277760    4.91499996    0.36600000
   15.73333359    4.91499996    0.34599999
   15.73388958    4.91499996    0.34599999
   15.73416710    4.91499996    0.34599999
   15.73472214    4.91499996    0.30800000
   15.73500061    4.91499996    0.26899999
   15.73555565    4.91499996    0.25000000
   15.73722267    4.91499996    0.30800000
   15.73944473    4.91499996    0.32699999
   15.74000072    4.91499996    0.30800000
   15.74027824    4.91499996    0.28900000
   15.74083328    4.91499996    0.28900000
   15.74111176    4.91499996    0.28900000
   15.74166679    4.91499996    0.30800000
   15.74194431    4.91499996    0.30800000
   15.74250031    4.91499996    0.28900000
   15.74277782    4.91499996    0.28900000
   15.74333382    4.91499996    0.26899999
   15.74388885    4.91499996    0.26899999
   15.74416733    4.91499996    0.25000000
   15.74472237    4.91499996    0.25000000
   15.74499989    4.91499996    0.25000000
   15.74555588    4.91499996    0.25000000
   15.74583340    4.91499996    0.25000000
   15.74638939    4.91499996    0.23100001
   15.74666691    4.91499996    0.23100001
   15.74722290    4.91499996    0.23100001
   15.74750042    4.91499996    0.23100001
   15.74805546    4.91499996    0.21200000
   15.74861145    4.91499996    0.21200000
   15.74888897    4.91499996    0.19200000
   15.74944496    4.91499996    0.19200000
   15.74972248    4.91499996    0.17299999
   15.75027752    4.91499996    0.17299999
   15.75055599    4.91499996    0.17299999
   15.75111103    4.91499996    0.15400000
   15.75166702    4.91499996    0.15400000
   15.75194454    4.91499996    0.15400000
   15.75249958    4.91499996    0.15400000
   15.75277805    4.91499996    0.15400000
   15.75333309    4.91499996    0.15400000
   15.75361156    4.91499996    0.15400000
   15.75416660    4.91499996    0.15400000
   15.75444412    4.91499996    0.15400000
   15.75500011    4.91499996    0.15400000
   15.75527763    4.91499996    0.15400000
   15.75583363    4.91499996    0.15400000
   15.75611115    4.91499996    0.15400000
   15.75666714    4.91499996    0.15400000
   15.75722218    4.91499996    0.15400000
   15.75749969    4.91499996    0.15400000
   15.75805569    4.91499996    0.15400000
   15.75833321    4.91499996    0.15400000
   15.75888920    4.91499996    0.15400000
   15.75916672    4.91499996    0.15400000
   15.75972176    4.91499996    0.17299999
   15.76027775    4.91499996    0.15400000
   15.76055527    4.91499996    0.15400000
   15.76111126    4.91499996    0.15400000
   15.76138878    4.91499996    0.15400000
   15.76194477    4.91499996    0.15400000
   15.76222229    4.91499996    0.15400000
   15.76388931    4.91499996    0.17299999
   15.76611137    4.91499996    0.15400000
   15.76666641    4.91499996    0.15400000
   15.76694393    4.91499996    0.17299999
   15.76749992    4.91499996    0.15400000
   15.76805496    4.91499996    0.15400000
   15.76833344    4.91499996    0.15400000
   15.76888847    4.91499996    0.13400000
   15.76916599    4.91499996    0.13400000
   15.76972198    4.91499996    0.13400000
   15.76999950    4.91499996    0.13400000
   15.77055550    4.91499996    0.13400000
   15.77083302    4.91499996    0.13400000
   15.77138901    4.91499996    0.13400000
   15.77166653    4.91499996    0.13400000
   15.77222157    4.91499996    0.13400000
   15.77250004    4.91499996    0.13400000
   15.77305508    4.91499996    0.13400000
   15.77361107    4.91499996    0.13400000
   15.77388859    4.91499996    0.13400000
   15.77444458    4.91499996    0.13400000
   15.77472210    4.91499996    0.13400000
   15.77527714    4.91499996    0.13400000
   15.77583313    4.91499996    0.13400000
   15.77611065    4.91499996    0.13400000
   15.77666664    4.91499996    0.13400000
   15.77694416    4.91499996    0.13400000
   15.77750015    4.91499996    0.13400000
   15.77777767    4.91499996    0.13400000
   15.77833271    4.91499996    0.13400000
   15.77861118    4.91499996    0.13400000
   15.77916622    4.91499996    0.13400000
   15.77972221    4.91499996    0.13400000
   15.77999973    4.91499996    0.11500000
   15.78055573    4.91499996    0.11500000
   15.78083324    4.91499996    0.09600000
   15.78138828    4.91499996    0.09600000
   15.78166676    4.91499996    0.09600000
   15.78222179    4.91499996    0.09600000
   15.78249931    4.91499996    0.09600000
   15.78305531    4.91499996    0.11500000
   15.78333378    4.91499996    0.11500000
   15.78388977    4.91499996    0.13400000
   15.78444481    4.91499996    0.13400000
   15.78472233    4.91499996    0.15400000
   15.78527832    4.91499996    0.15400000
   15.78555584    4.91499996    0.15400000
   15.78611183    4.91499996    0.13400000
   15.78666687    4.91499996    0.13400000
   15.78694534    4.91499996    0.13400000
   15.78750038    4.91499996    0.13400000
   15.78777790    4.91499996    0.15400000
   15.78833389    4.91499996    0.17299999
   15.78861141    4.91499996    0.15400000
   15.78916740    4.91499996    0.15400000
   15.79083347    4.91499996    0.15400000
   15.79277802    4.91499996    0.15400000
   15.79333401    4.91499996    0.15400000
   15.79361153    4.91499996    0.15400000
   15.79416752    4.91499996    0.15400000
   15.79472256    4.91499996    0.15400000
   15.79500008    4.91499996    0.15400000
   15.79555607    4.91499996    0.15400000
   15.79583359    4.91499996    0.17299999
   15.79638958    4.91499996    0.17299999
   15.79694462    4.91499996    0.17299999
   15.79722309    4.91499996    0.17299999
   15.79777813    4.91499996    0.17299999
   15.79805565    4.91499996    0.19200000
   15.79861164    4.91499996    0.21200000
   15.79888916    4.91499996    0.21200000
   15.79944515    4.91499996    0.19200000
   15.80000019    4.91499996    0.13400000
   15.80027771    4.91499996    0.11500000
   15.80083370    4.91499996    0.11500000
   15.80111122    4.91499996    0.15400000
   15.80166721    4.91499996    0.15400000
   15.80194473    4.91499996    0.17299999
   15.80249977    4.91499996    0.17299999
   15.80277824    4.91499996    0.19200000
   15.80333328    4.91499996    0.15400000
   15.80388927    4.91499996    0.13400000
   15.80416679    4.91499996    0.13400000
   15.80472279    4.91499996    0.11500000
   15.80500031    4.91499996    0.09600000
   15.80555534    4.91499996    0.09600000
   15.80583382    4.91499996    0.07700000
   15.80638885    4.91499996    0.09600000
   15.80694485    4.91499996    0.11500000
   15.80722237    4.91499996    0.19200000
   15.80777836    4.91499996    0.23100001
   15.80805588    4.91499996    0.23100001
   15.80861092    4.91499996    0.23100001
   15.80916691    4.91499996    0.19200000
   15.80944443    4.91499996    0.17299999
   15.81000042    4.91499996    0.19200000
   15.81027794    4.91499996    0.17299999
   15.81083393    4.91499996    0.15400000
   15.81111145    4.91499996    0.15400000
   15.81166649    4.91499996    0.17299999
   15.81222248    4.91499996    0.21200000
   15.81250000    4.91499996    0.25000000
   15.81305599    4.91499996    0.26899999
   15.81333351    4.91499996    0.26899999
   15.81388950    4.91499996    0.26899999
   15.81416702    4.91499996    0.25000000
   15.81472206    4.91499996    0.26899999
   15.81527805    4.91499996    0.26899999
   15.81555557    4.91499996    0.26899999
   15.81611156    4.91499996    0.28900000
   15.81777763    4.91499996    0.30800000
   15.81999969    4.91499996    0.28900000
   15.82027817    4.91499996    0.28900000
   15.82083321    4.91499996    0.28900000
   15.82111073    4.91499996    0.26899999
   15.82166672    4.91499996    0.26899999
   15.82194424    4.91499996    0.26899999
   15.82250023    4.91499996    0.25000000
   15.82277775    4.91499996    0.25000000
   15.82333374    4.91499996    0.25000000
   15.82388878    4.91499996    0.25000000
   15.82416630    4.91499996    0.23100001
   15.82472229    4.91499996    0.23100001
   15.82499981    4.91499996    0.26899999
   15.82555580    4.91499996    0.28900000
   15.82583332    4.91499996    0.30800000
   15.82638836    4.91499996    0.30800000
   15.82694435    4.91499996    0.30800000
   15.82722187    4.91499996    0.28900000
   15.82777786    4.91499996    0.28900000
   15.82805538    4.91499996    0.30800000
   15.82861137    4.91499996    0.32699999
   15.82888889    4.91499996    0.32699999
   15.82944393    4.91499996    0.32699999
   15.82999992    4.91499996    0.34599999
   15.83027744    4.91499996    0.32699999
   15.83083344    4.91499996    0.32699999
   15.83111095    4.91499996    0.34599999
   15.83166695    4.91499996    0.36600000
   15.83222198    4.91499996    0.36600000
   15.83249950    4.91499996    0.38499999
   15.83305550    4.91499996    0.40400001
   15.83333302    4.91499996    0.42399999
   15.83388901    4.91499996    0.42399999
   15.83416653    4.91499996    0.42399999
   15.83472157    4.91499996    0.42399999
   15.83527756    4.91499996    0.44299999
   15.83555508    4.91499996    0.44299999
   15.83611107    4.91499996    0.44299999
   15.83638859    4.91499996    0.44299999
   15.83694458    4.91499996    0.44299999
   15.83722210    4.91499996    0.46200001
   15.83777714    4.91499996    0.46200001
   15.83833313    4.91499996    0.48100001
   15.83861065    4.91499996    0.48100001
   15.83916664    4.91499996    0.48100001
   15.83944416    4.91499996    0.48100001
   15.84000015    4.91499996    0.46200001
   15.84027767    4.91499996    0.42399999
   15.84083271    4.91499996    0.40400001
   15.84138870    4.91499996    0.36600000
   15.84166622    4.91499996    0.36600000
   15.84222221    4.91499996    0.40400001
   15.84249973    4.91499996    0.44299999
   15.84305477    4.91499996    0.44299999
   15.84472179    4.91499996    0.46200001
   15.84666634    4.91499996    0.48100001
   15.84722233    4.91499996    0.46200001
   15.84749985    4.91499996    0.46200001
   15.84805489    4.91499996    0.46200001
   15.84861088    4.91499996    0.44299999
   15.84888840    4.91499996    0.44299999
   15.84944439    4.91499996    0.42399999
   15.84972191    4.91499996    0.42399999
   15.85027790    4.91499996    0.40400001
   15.85083389    4.91499996    0.42399999
   15.85111141    4.91499996    0.42399999
   15.85166740    4.91499996    0.40400001
   15.85194492    4.91499996    0.38499999
   15.85249996    4.91499996    0.38499999
   15.85305595    4.91499996    0.38499999
   15.85333347    4.91499996    0.38499999
   15.85388947    4.91499996    0.38499999
   15.85416698    4.91499996    0.38499999
   15.85472298    4.91499996    0.36600000
   15.85500050    4.91499996    0.36600000
   15.85555553    4.91499996    0.36600000
   15.85583401    4.91499996    0.38499999
   15.85638905    4.91499996    0.36600000
   15.85666752    4.91499996    0.36600000
   15.85722256    4.91499996    0.36600000
   15.85777855    4.91499996    0.38499999
   15.85805607    4.91499996    0.38499999
   15.85861111    4.91499996    0.40400001
   15.85888958    4.91499996    0.40400001
   15.85944462    4.91499996    0.40400001
   15.85972214    4.91499996    0.40400001
   15.86027813    4.91499996    0.40400001
   15.86055565    4.91499996    0.40400001
   15.86111164    4.91499996    0.40400001
   15.86166668    4.91499996    0.42399999
   15.86194515    4.91499996    0.42399999
   15.86250019    4.91499996    0.42399999
   15.86277771    4.91499996    0.44299999
   15.86333370    4.91499996    0.44299999
   15.86361122    4.91499996    0.42399999
   15.86416721    4.91499996    0.42399999
   15.86472225    4.91499996    0.40400001
   15.86500072    4.91499996    0.38499999
   15.86555576    4.91499996    0.38499999
   15.86583328    4.91499996    0.36600000
   15.86638927    4.91499996    0.36600000
   15.86666679    4.91499996    0.34599999
   15.86722279    4.91499996    0.34599999
   15.86750031    4.91499996    0.34599999
   15.86805534    4.91499996    0.34599999
   15.86833382    4.91499996    0.34599999
   15.86888885    4.91499996    0.34599999
   15.86916637    4.91499996    0.34599999
   15.86972237    4.91499996    0.34599999
   15.87138939    4.91499996    0.34599999
   15.87361145    4.91499996    0.32699999
   15.87416649    4.91499996    0.32699999
   15.87444496    4.91499996    0.32699999
   15.87500000    4.91499996    0.32699999
   15.87527752    4.91499996    0.30800000
   15.87583351    4.91499996    0.32699999
   15.87611103    4.91499996    0.32699999
   15.87666702    4.91499996    0.30800000
   15.87722206    4.91499996    0.32699999
   15.87750053    4.91499996    0.32699999
   15.87805557    4.91499996    0.34599999
   15.87833309    4.91499996    0.32699999
   15.87888908    4.91499996    0.32699999
   15.87916660    4.91499996    0.30800000
   15.87972260    4.91499996    0.30800000
   15.88000011    4.91499996    0.30800000
   15.88055611    4.91499996    0.28900000
   15.88111115    4.91499996    0.28900000
   15.88138866    4.91499996    0.30800000
   15.88194466    4.91499996    0.30800000
   15.88222218    4.91499996    0.30800000
   15.88277817    4.91499996    0.28900000
   15.88305569    4.91499996    0.28900000
   15.88361073    4.91499996    0.28900000
   15.88388920    4.91499996    0.30800000
   15.88444424    4.91499996    0.30800000
   15.88500023    4.91499996    0.30800000
   15.88527775    4.91499996    0.30800000
   15.88583279    4.91499996    0.28900000
   15.88611126    4.91499996    0.28900000
   15.88666630    4.91499996    0.28900000
   15.88722229    4.91499996    0.30800000
   15.88749981    4.91499996    0.30800000
   15.88805580    4.91499996    0.30800000
   15.88833332    4.91499996    0.30800000
   15.88888836    4.91499996    0.30800000
   15.88916683    4.91499996    0.30800000
   15.88972187    4.91499996    0.30800000
   15.89000034    4.91499996    0.32699999
   15.89055538    4.91499996    0.32699999
   15.89083290    4.91499996    0.30800000
   15.89138889    4.91499996    0.32699999
   15.89194393    4.91499996    0.30800000
   15.89222240    4.91499996    0.30800000
   15.89277744    4.91499996    0.32699999
   15.89305496    4.91499996    0.30800000
   15.89361095    4.91499996    0.30800000
   15.89388847    4.91499996    0.30800000
   15.89444447    4.91499996    0.30800000
   15.89499950    4.91499996    0.28900000
   15.89527798    4.91499996    0.26899999
   15.89583302    4.91499996    0.26899999
   15.89611053    4.91499996    0.26899999
   15.89666653    4.91499996    0.26899999
   15.89833355    4.91499996    0.28900000
   15.90055561    4.91499996    0.26899999
   15.90083313    4.91499996    0.26899999
   15.90138817    4.91499996    0.26899999
   15.90166664    4.91499996    0.26899999
   15.90222168    4.91499996    0.28900000
   15.90249920    4.91499996    0.28900000
   15.90305519    4.91499996    0.28900000
   15.90361118    4.91499996    0.28900000
   15.90388870    4.91499996    0.26899999
   15.90444374    4.91499996    0.26899999
   15.90472221    4.91499996    0.26899999
   15.90527725    4.91499996    0.26899999
   15.90555477    4.91499996    0.26899999
   15.90611076    4.91499996    0.25000000
   15.90666676    4.91499996    0.25000000
   15.90694427    4.91499996    0.25000000
   15.90749931    4.91499996    0.25000000
   15.90777779    4.91499996    0.25000000
   15.90833282    4.91499996    0.26899999
   15.90861034    4.91499996    0.26899999
   15.90916634    4.91499996    0.26899999
   15.90944386    4.91499996    0.26899999
   15.90999985    4.91499996    0.28900000
   15.91055489    4.91499996    0.28900000
   15.91083336    4.91499996    0.26899999
   15.91138840    4.91499996    0.26899999
   15.91166592    4.91499996    0.28900000
   15.91222191    4.91499996    0.30800000
   15.91249943    4.91499996    0.30800000
   15.91305542    4.91499996    0.28900000
   15.91333294    4.91499996    0.28900000
   15.91388893    4.91499996    0.28900000
   15.91444397    4.91499996    0.26899999
   15.91472149    4.91499996    0.25000000
   15.91527748    4.91499996    0.26899999
   15.91555500    4.91499996    0.26899999
   15.91611099    4.91499996    0.25000000
   15.91638851    4.91499996    0.25000000
   15.91694450    4.91499996    0.25000000
   15.91722298    4.91499996    0.23100001
   15.91777802    4.91499996    0.23100001
   15.91833401    4.91499996    0.23100001
   15.91861153    4.91499996    0.23100001
   15.91916656    4.91499996    0.21200000
   15.91944504    4.91499996    0.21200000
   15.92000008    4.91499996    0.21200000
   15.92027855    4.91499996    0.19200000
   15.92083359    4.91499996    0.21200000
   15.92111111    4.91499996    0.21200000
   15.92166710    4.91499996    0.21200000
   15.92222214    4.91499996    0.21200000
   15.92250061    4.91499996    0.23100001
   15.92305565    4.91499996    0.23100001
   15.92333412    4.91499996    0.23100001
   15.92500019    4.91499996    0.25000000
   15.92722225    4.91499996    0.28900000
   15.92750072    4.91499996    0.28900000
   15.92805576    4.91499996    0.28900000
   15.92861176    4.91499996    0.28900000
   15.92888927    4.91499996    0.28900000
   15.92944431    4.91499996    0.28900000
   15.92972279    4.91499996    0.26899999
   15.93027782    4.91499996    0.26899999
   15.93055630    4.91499996    0.26899999
   15.93111134    4.91499996    0.28900000
   15.93138885    4.91499996    0.28900000
   15.93194485    4.91499996    0.28900000
   15.93222237    4.91499996    0.28900000
   15.93277836    4.91499996    0.28900000
   15.93333340    4.91499996    0.28900000
   15.93361092    4.91499996    0.26899999
   15.93416691    4.91499996    0.26899999
   15.93444443    4.91499996    0.26899999
   15.93500042    4.91499996    0.28900000
   15.93527794    4.91499996    0.26899999
   15.93583298    4.91499996    0.28900000
   15.93638897    4.91499996    0.26899999
   15.93666649    4.91499996    0.26899999
   15.93722248    4.91499996    0.26899999
   15.93750000    4.91499996    0.26899999
   15.93805599    4.91499996    0.28900000
   15.93833351    4.91499996    0.28900000
   15.93888855    4.91499996    0.28900000
   15.93916702    4.91499996    0.28900000
   15.93972206    4.91499996    0.28900000
   15.94000053    4.91499996    0.28900000
   15.94055557    4.91499996    0.28900000
   15.94111156    4.91499996    0.28900000
   15.94138908    4.91499996    0.28900000
   15.94194412    4.91499996    0.28900000
   15.94222260    4.91499996    0.28900000
   15.94277763    4.91499996    0.28900000
   15.94305515    4.91499996    0.28900000
   15.94361115    4.91499996    0.28900000
   15.94388866    4.91499996    0.28900000
   15.94444466    4.91499996    0.28900000
   15.94499969    4.91499996    0.28900000
   15.94527817    4.91499996    0.28900000
   15.94583321    4.91499996    0.28900000
   15.94611073    4.91499996    0.28900000
   15.94666672    4.91499996    0.28900000
   15.94694424    4.91499996    0.28900000
   15.94750023    4.91499996    0.28900000
   15.94777775    4.91499996    0.25000000
   15.94833374    4.91499996    0.25000000
   15.94888878    4.91499996    0.25000000
   15.94916630    4.91499996    0.25000000
   15.94972229    4.91499996    0.25000000
   15.94999981    4.91499996    0.23100001
   15.95055580    4.91499996    0.23100001
   15.95222187    4.91499996    0.21200000
   15.95444393    4.91499996    0.23100001
   15.95472240    4.91499996    0.23100001
   15.95527744    4.91499996    0.25000000
   15.95555496    4.91499996    0.25000000
   15.95611095    4.91499996    0.26899999
   15.95666695    4.91499996    0.26899999
   15.95694447    4.91499996    0.28900000
   15.95749950    4.91499996    0.26899999
   15.95777798    4.91499996    0.26899999
   15.95833302    4.91499996    0.26899999
   15.95888901    4.91499996    0.26899999
   15.95916653    4.91499996    0.26899999
   15.95972157    4.91499996    0.26899999
   15.96000004    4.91499996    0.26899999
   15.96055508    4.91499996    0.26899999
   15.96083355    4.91499996    0.26899999
   15.96138859    4.91499996    0.28900000
   15.96194458    4.91499996    0.26899999
   15.96222210    4.91499996    0.26899999
   15.96277714    4.91499996    0.26899999
   15.96305561    4.91499996    0.28900000
   15.96361065    4.91499996    0.30800000
   15.96388912    4.91499996    0.30800000
   15.96444416    4.91499996    0.30800000
   15.96500015    4.91499996    0.28900000
   15.96527767    4.91499996    0.28900000
   15.96583271    4.91499996    0.28900000
   15.96611118    4.91499996    0.28900000
   15.96666622    4.91499996    0.28900000
   15.96694374    4.91499996    0.28900000
   15.96749973    4.91499996    0.26899999
   15.96805477    4.91499996    0.26899999
   15.96833324    4.91499996    0.26899999
   15.96888828    4.91499996    0.26899999
   15.96916580    4.91499996    0.28900000
   15.96972179    4.91499996    0.30800000
   15.96999931    4.91499996    0.30800000
   15.97055531    4.91499996    0.30800000
   15.97111034    4.91499996    0.30800000
   15.97138882    4.91499996    0.28900000
   15.97194386    4.91499996    0.28900000
   15.97222137    4.91499996    0.28900000
   15.97277737    4.91499996    0.30800000
   15.97305489    4.91499996    0.30800000
   15.97361088    4.91499996    0.30800000
   15.97388840    4.91499996    0.28900000
   15.97444439    4.91499996    0.28900000
   15.97499943    4.91499996    0.30800000
   15.97527695    4.91499996    0.32699999
   15.97583294    4.91499996    0.34599999
   15.97611046    4.91499996    0.32699999
   15.97666645    4.91499996    0.32699999
   15.97694397    4.91499996    0.34599999
   15.97749996    4.91499996    0.32699999
   15.97916603    4.91499996    0.34599999
   15.98138809    4.91499996    0.34599999
   15.98194408    4.91499996    0.32699999
   15.98222160    4.91499996    0.32699999
   15.98277760    4.91499996    0.32699999
   15.98333359    4.91499996    0.30800000
   15.98361111    4.91499996    0.32699999
   15.98416710    4.91499996    0.30800000
   15.98444462    4.91499996    0.30800000
   15.98500061    4.91499996    0.30800000
   15.98527813    4.91499996    0.30800000
   15.98583317    4.91499996    0.30800000
   15.98611164    4.91499996    0.30800000
   15.98666668    4.91499996    0.30800000
   15.98722267    4.91499996    0.30800000
   15.98750019    4.91499996    0.30800000
   15.98805618    4.91499996    0.30800000
   15.98833370    4.91499996    0.30800000
   15.98888874    4.91499996    0.30800000
   15.98916721    4.91499996    0.28900000
   15.98972225    4.91499996    0.28900000
   15.99000072    4.91499996    0.26899999
   15.99055576    4.91499996    0.26899999
   15.99083328    4.91499996    0.26899999
   15.99138927    4.91499996    0.26899999
   15.99194431    4.91499996    0.25000000
   15.99222279    4.91499996    0.25000000
   15.99277782    4.91499996    0.25000000
   15.99305534    4.91499996    0.26899999
   15.99361134    4.91499996    0.26899999
   15.99388885    4.91499996    0.26899999
   15.99444485    4.91499996    0.26899999
   15.99499989    4.91499996    0.26899999
   15.99527836    4.91499996    0.26899999
   15.99583340    4.91499996    0.26899999
   15.99611092    4.91499996    0.28900000
   15.99666691    4.91499996    0.28900000
   15.99694443    4.91499996    0.28900000
   15.99750042    4.91499996    0.28900000
   15.99777794    4.91499996    0.30800000
   15.99833393    4.91499996    0.30800000
   15.99888897    4.91499996    0.32699999
   15.99916649    4.91499996    0.32699999
   15.99972248    4.91499996    0.32699999
   16.00000000    4.91499996    0.30800000
   16.00055504    4.91499996    0.32699999
   16.00083351    4.91499996    0.30800000
   16.00138855    4.91499996    0.30800000
   16.00166702    4.91499996    0.32699999
   16.00222206    4.91499996    0.32699999
   16.00277710    4.91499996    0.32699999
   16.00305557    4.91499996    0.32699999
   16.00361061    4.91499996    0.32699999
   16.00388908    4.91499996    0.30800000
   16.00444412    4.91499996    0.30800000
   16.00611115    4.91499996    0.30800000
   16.00805473    4.91499996    0.30800000
   16.00861168    4.91499996    0.28900000
   16.00888824    4.91499996    0.26899999
   16.00944519    4.91499996    0.26899999
   16.01000023    4.91499996    0.26899999
   16.01027870    4.91499996    0.28900000
   16.01083374    4.91499996    0.28900000
   16.01111031    4.91499996    0.26899999
   16.01166725    4.91499996    0.25000000
   16.01194382    4.91499996    0.25000000
   16.01250076    4.91499996    0.25000000
   16.01305580    4.91499996    0.25000000
   16.01333427    4.91499996    0.25000000
   16.01388931    4.91499996    0.25000000
   16.01416588    4.91499996    0.25000000
   16.01472282    4.91499996    0.25000000
   16.01499939    4.91499996    0.23100001
   16.01555634    4.91499996    0.25000000
   16.01611137    4.91499996    0.23100001
   16.01638794    4.91499996    0.25000000
   16.01694489    4.91499996    0.25000000
   16.01722145    4.91499996    0.25000000
   16.01777840    4.91499996    0.23100001
   16.01805496    4.91499996    0.23100001
   16.01861000    4.91499996    0.23100001
   16.01916695    4.91499996    0.25000000
   16.01944351    4.91499996    0.25000000
   16.02000046    4.91499996    0.25000000
   16.02027702    4.91499996    0.25000000
   16.02083397    4.91499996    0.26899999
   16.02166557    4.91499996    0.25000000
   16.02222252    4.91499996    0.25000000
   16.02277756    4.91499996    0.25000000
   16.02333260    4.91499996    0.25000000
   16.02388954    4.91499996    0.25000000
   16.02472115    4.91499996    0.26899999
   16.02527809    4.91499996    0.25000000
   16.02583313    4.91499996    0.25000000
   16.02638817    4.91499996    0.25000000
   16.02722168    4.91499996    0.25000000
   16.02777672    4.91499996    0.23100001
   16.02833366    4.91499996    0.23100001
   16.02888870    4.91499996    0.21200000
   16.02944374    4.91499996    0.21200000
   16.03027725    4.91499996    0.19200000
   16.03083229    4.91499996    0.19200000
   16.03138924    4.91499996    0.19200000
   17.61055565    4.91499996    0.19200000
   17.61222267    4.91499996    0.07700000
   17.61388969    4.91499996    0.07700000
   17.64944458    1.75399995    0.01900000
   17.64972115    1.79200006    0.01900000
   17.65027809    1.86899996    0.01900000
   17.65083313    2.02399993    0.01900000
   17.65111160    2.21600008    0.01900000
   17.65277672    3.50799990    0.01900000
   17.65527725    4.91499996    0.03800000
   17.65555573    4.91499996    0.03800000
   17.65611076    4.91499996    0.05700000
   17.65638924    4.91499996    0.05700000
   17.65694427    4.91499996    0.05700000
   17.65749931    4.91499996    0.05700000
   17.65777779    4.91499996    0.09600000
   17.65833282    4.91499996    0.11500000
   17.65861130    4.91499996    0.07700000
   17.65916634    4.91499996    0.05700000
   17.65944481    4.91499996    0.05700000
   17.65999985    4.91499996    0.03800000
   17.66055489    4.91499996    0.05700000
   17.66083336    4.91499996    0.05700000
   17.66138840    4.91499996    0.07700000
   17.66166687    4.91499996    0.07700000
   17.66222191    4.91499996    0.05700000
   17.66250038    4.91499996    0.05700000
   17.66305542    4.91499996    0.03800000
   17.66333389    4.91499996    0.05700000
   17.66388893    4.91499996    0.05700000
   17.66444397    4.91499996    0.05700000
   17.66472244    4.91499996    0.05700000
   17.66527748    4.91499996    0.05700000
   17.66555595    4.91499996    0.05700000
   17.66611099    4.91499996    0.03800000
   17.66638756    4.91499996    0.05700000
   17.66694450    4.91499996    0.05700000
   17.66722107    4.78000021    0.03800000
   17.66777802    4.33699989    0.01900000
   17.66833305    3.99000001    0.01900000
   17.66860962    3.54699993    0.01900000
   17.69361115    3.41199994    0.01900000
   17.69416618    3.87400007    0.01900000
   17.69444275    4.47200012    0.01900000
   17.69499969    4.87699986    0.01900000
   17.69555473    4.91499996    0.01900000
   17.69583321    4.91499996    0.01900000
   17.69638824    4.91499996    0.01900000
   17.69666672    4.91499996    0.03800000
   17.69722176    4.91499996    0.03800000
   17.69749832    4.91499996    0.03800000
   17.69805527    4.91499996    0.03800000
   17.69833183    4.91499996    0.03800000
   17.69888878    4.91499996    0.03800000
   17.69944382    4.91499996    0.05700000
   17.69972038    4.91499996    0.05700000
   17.70027924    4.91499996    0.05700000
   17.70055580    4.91499996    0.07700000
   17.70111275    4.91499996    0.07700000
   17.70138931    4.91499996    0.07700000
   17.70194435    4.91499996    0.07700000
   17.70222282    4.91499996    0.07700000
   17.70277786    4.91499996    0.07700000
   17.70305634    4.91499996    0.09600000
   17.70361137    4.91499996    0.09600000
   17.70416832    4.91499996    0.11500000
   17.70444489    4.91499996    0.11500000
   17.70499992    4.91499996    0.17299999
   17.70666695    4.91499996    0.32699999
   17.70888901    4.91499996    0.48100001
   17.70944595    4.91499996    0.46200001
   17.70972252    4.91499996    0.46200001
   17.71027946    4.91499996    0.44299999
   17.71055603    4.91499996    0.36600000
   17.71111107    4.91499996    0.26899999
   17.71138954    4.91499996    0.32699999
   17.71194458    4.91499996    0.30800000
   17.71250153    4.91499996    0.32699999
   17.71277809    4.91499996    0.34599999
   17.71333504    4.91499996    0.34599999
   17.71361160    4.91499996    0.30800000
   17.71416664    4.91499996    0.23100001
   17.71444511    4.91499996    0.17299999
   17.71500015    4.91499996    0.17299999
   17.71527863    4.91499996    0.17299999
   17.71583366    4.91499996    0.17299999
   17.71638870    4.91499996    0.13400000
   17.71666718    4.91499996    0.11500000
   17.71722221    4.91499996    0.09600000
   17.71750069    4.91499996    0.09600000
   17.71805573    4.91499996    0.09600000
   17.71833420    4.91499996    0.09600000
   17.71888924    4.91499996    0.09600000
   17.71944427    4.91499996    0.11500000
   17.71972275    4.91499996    0.13400000
   17.72027779    4.91499996    0.11500000
   17.72055626    4.91499996    0.09600000
   17.72111130    4.91499996    0.09600000
   17.72138977    4.91499996    0.09600000
   17.72194481    4.91499996    0.09600000
   17.72222328    4.91499996    0.09600000
   17.72277832    4.91499996    0.07700000
   17.72333336    4.91499996    0.09600000
   17.72361183    4.91499996    0.09600000
   17.72416687    4.91499996    0.09600000
   17.72444534    4.91499996    0.07700000
   17.72500038    4.91499996    0.07700000
   17.72527885    4.91499996    0.07700000
   17.72583389    4.91499996    0.09600000
   17.72638893    4.91499996    0.07700000
   17.72666740    4.91499996    0.07700000
   17.72722244    4.91499996    0.07700000
   17.72750092    4.91499996    0.07700000
   17.72805595    4.91499996    0.07700000
   17.72833443    4.91499996    0.07700000
   17.72888947    4.91499996    0.07700000
   17.72916794    4.91499996    0.07700000
   17.72972298    4.91499996    0.07700000
   17.73027802    4.91499996    0.09600000
   17.73055649    4.91499996    0.09600000
   17.73111153    4.91499996    0.09600000
   17.73139000    4.91499996    0.09600000
   17.73194504    4.91499996    0.09600000
   17.73361206    4.91499996    0.11500000
   17.73583412    4.91499996    0.07700000
   17.73611069    4.91499996    0.07700000
   17.73666763    4.91499996    0.07700000
   17.73722267    4.91499996    0.07700000
   17.73750114    4.91499996    0.07700000
   17.73805618    4.91499996    0.07700000
   17.73833275    4.91499996    0.07700000
   17.73888969    4.91499996    0.07700000
   17.73916626    4.91499996    0.07700000
   17.73972321    4.91499996    0.07700000
   17.74027824    4.91499996    0.07700000
   17.74055672    4.91499996    0.07700000
   17.74111176    4.91499996    0.09600000
   17.74138832    4.91499996    0.09600000
   17.74194527    4.91499996    0.11500000
   17.74222183    4.91499996    0.13400000
   17.74277878    4.91499996    0.15400000
   17.74305534    4.91499996    0.17299999
   17.74361229    4.91499996    0.17299999
   17.74416733    4.91499996    0.17299999
   17.74444389    4.91499996    0.21200000
   17.74500084    4.91499996    0.26899999
   17.74527740    4.91499996    0.32699999
   17.74583435    4.91499996    0.40400001
   17.74611092    4.91499996    0.50099999
   17.74666786    4.91499996    0.53899997
   17.74694443    4.91499996    0.55900002
   17.74749947    4.91499996    0.53899997
   17.74805641    4.91499996    0.51999998
   17.74833298    4.91499996    0.57800001
   17.74888992    4.91499996    0.55900002
   17.74916649    4.91499996    0.55900002
   17.74972153    4.91499996    0.51999998
   17.75027847    4.91499996    0.48100001
   17.75055504    4.91499996    0.42399999
   17.75111198    4.91499996    0.44299999
   17.75138855    4.91499996    0.53899997
   17.75194359    4.91499996    0.59700000
   17.75222206    4.91499996    0.61600000
   17.75277710    4.91499996    0.63599998
   17.75305557    4.91499996    0.61600000
   17.75361061    4.91499996    0.55900002
   17.75388908    4.91499996    0.61600000
   17.75444412    4.91499996    0.61600000
   17.75499916    4.91499996    0.59700000
   17.75527763    4.91499996    0.57800001
   17.75583267    4.91499996    0.55900002
   17.75611115    4.91499996    0.50099999
   17.75666618    4.91499996    0.44299999
   17.75694466    4.91499996    0.40400001
   17.75749969    4.91499996    0.36600000
   17.75805473    4.91499996    0.32699999
   17.75833321    4.91499996    0.40400001
   17.75888824    4.91499996    0.51999998
   17.76055527    4.91499996    0.46200001
   17.76277733    4.91499996    0.48100001
   17.76305580    4.91499996    0.61600000
   17.76361084    4.91499996    0.53899997
   17.76388931    4.91499996    0.36600000
   17.76444435    4.91499996    0.36600000
   17.76472282    4.91499996    0.40400001
   17.76527786    4.91499996    0.48100001
   17.76555634    4.91499996    0.48100001
   17.76611137    4.91499996    0.46200001
   17.76666641    4.91499996    0.50099999
   17.76694489    4.91499996    0.59700000
   17.76749992    4.91499996    0.55900002
   17.76777840    4.91499996    0.50099999
   17.76833344    4.91499996    0.44299999
   17.76861000    4.91499996    0.38499999
   17.76916695    4.91499996    0.28900000
   17.76944351    4.91499996    0.21200000
   17.77000046    4.91499996    0.15400000
   17.77027702    4.91499996    0.13400000
   17.77083397    4.91499996    0.09600000
   17.77138901    4.91499996    0.09600000
   17.77166557    4.91499996    0.07700000
   17.77222252    4.91499996    0.07700000
   17.77249908    4.91499996    0.05700000
   17.77305603    4.91499996    0.05700000
   17.77361107    4.91499996    0.05700000
   17.77388954    4.91499996    0.05700000
   17.77444458    4.91499996    0.05700000
   17.77472115    4.91499996    0.03800000
   17.77527809    4.91499996    0.05700000
   17.77555466    4.91499996    0.05700000
   17.77611160    4.91499996    0.03800000
   17.77638817    4.91499996    0.03800000
   17.77694511    4.91499996    0.05700000
   17.77722168    4.91499996    0.05700000
   17.77777672    4.91499996    0.07700000
   17.77833366    4.91499996    0.07700000
   17.77861023    4.91499996    0.07700000
   17.77916718    4.91499996    0.07700000
   17.77944374    4.91499996    0.09600000
   17.78000069    4.91499996    0.11500000
   17.78027725    4.91499996    0.15400000
   17.78083229    4.91499996    0.17299999
   17.78111076    4.91499996    0.19200000
   17.78166580    4.91499996    0.23100001
   17.78194427    4.91499996    0.19200000
   17.78249931    4.91499996    0.11500000
   17.78305435    4.91499996    0.11500000
   17.78333282    4.91499996    0.11500000
   17.78388786    4.91499996    0.11500000
   17.78416634    4.91499996    0.09600000
   17.78472137    4.91499996    0.07700000
   17.78499985    4.91499996    0.07700000
   17.78555489    4.91499996    0.09600000
   17.78722191    4.91499996    0.07700000
   17.78944397    4.91499996    0.07700000
   17.78972244    4.91499996    0.05700000
   17.79027748    4.91499996    0.05700000
   17.79055595    4.91499996    0.05700000
   17.79111099    4.91499996    0.05700000
   17.79166603    4.91499996    0.05700000
   17.79194450    4.91499996    0.05700000
   17.79249954    4.91499996    0.07700000
   17.79277802    4.91499996    0.05700000
   17.79333305    4.91499996    0.07700000
   17.79361153    4.91499996    0.07700000
   17.79416656    4.91499996    0.07700000
   17.79444313    4.91499996    0.09600000
   17.79500008    4.91499996    0.11500000
   17.79527664    4.91499996    0.15400000
   17.79583359    4.91499996    0.17299999
   17.79611015    4.91499996    0.26899999
   17.79666710    4.91499996    0.34599999
   17.79722214    4.91499996    0.48100001
   17.79749870    4.91499996    0.59700000
   17.79805565    4.91499996    0.53899997
   17.79833221    4.91499996    0.53899997
   17.79888916    4.91499996    0.57800001
   17.79916573    4.91499996    0.67400002
   17.79972076    4.91499996    0.67400002
   17.79999924    4.91499996    0.67400002
   17.80055428    4.91499996    0.67400002
   17.80111122    4.91499996    0.67400002
   17.80138779    4.91499996    0.65499997
   17.80194283    4.91499996    0.65499997
   17.80222130    4.91499996    0.63599998
   17.80277634    4.91499996    0.61600000
   17.80305481    4.91499996    0.59700000
   17.80360985    4.91499996    0.59700000
   17.80416679    4.91499996    0.59700000
   17.80444336    4.91499996    0.59700000
   17.80499840    4.91499996    0.57800001
   17.80527687    4.91499996    0.57800001
   17.80583191    4.91499996    0.55900002
   17.80611038    4.91499996    0.53899997
   17.80666542    4.91499996    0.55900002
   17.80694389    4.91499996    0.55900002
   17.80749893    4.91499996    0.55900002
   17.80805397    4.91499996    0.53899997
   17.80833244    4.91499996    0.55900002
   17.80888748    4.91499996    0.57800001
   17.80916595    4.91499996    0.57800001
   17.80972099    4.91499996    0.55900002
   17.81027794    4.91499996    0.55900002
   17.81055450    4.91499996    0.55900002
   17.81110954    4.91499996    0.53899997
   17.81138802    4.91499996    0.51999998
   17.81194305    4.91499996    0.53899997
   17.81222153    4.91499996    0.53899997
   17.81416512    4.91499996    0.53899997
   17.81638718    4.91499996    0.50099999
   17.81666756    4.91499996    0.50099999
   17.81722260    4.91499996    0.48100001
   17.81750107    4.91499996    0.50099999
   17.81805611    4.91499996    0.51999998
   17.81833458    4.91499996    0.51999998
   17.81888962    4.91499996    0.50099999
   17.81944466    4.91499996    0.48100001
   17.81972313    4.91499996    0.46200001
   17.82027817    4.91499996    0.46200001
   17.82055664    4.91499996    0.48100001
   17.82111168    4.91499996    0.48100001
   17.82139015    4.91499996    0.48100001
   17.82194519    4.91499996    0.46200001
   17.82222366    4.91499996    0.38499999
   17.82277870    4.91499996    0.32699999
   17.82333374    4.91499996    0.30800000
   17.82361221    4.91499996    0.30800000
   17.82416725    4.91499996    0.36600000
   17.82444572    4.91499996    0.40400001
   17.82500076    4.91499996    0.46200001
   17.82527924    4.91499996    0.48100001
   17.82583427    4.91499996    0.50099999
   17.82638931    4.91499996    0.50099999
   17.82666779    4.91499996    0.50099999
   17.82722282    4.91499996    0.51999998
   17.82750130    4.91499996    0.51999998
   17.82805634    4.91499996    0.51999998
   17.82833481    4.91499996    0.51999998
   17.82888985    4.91499996    0.51999998
   17.82916832    4.91499996    0.51999998
   17.82972336    4.91499996    0.51999998
   17.83027840    4.91499996    0.50099999
   17.83055687    4.91499996    0.50099999
   17.83111191    4.91499996    0.50099999
   17.83139038    4.91499996    0.51999998
   17.83194542    4.91499996    0.51999998
   17.83222389    4.91499996    0.51999998
   17.83277893    4.91499996    0.51999998
   17.83333397    4.91499996    0.51999998
   17.83361244    4.91499996    0.50099999
   17.83416748    4.91499996    0.51999998
   17.83444595    4.91499996    0.51999998
   17.83500099    4.91499996    0.51999998
   17.83527756    4.91499996    0.53899997
   17.83583450    4.91499996    0.55900002
   17.83611107    4.91499996    0.53899997
   17.83666801    4.91499996    0.51999998
   17.83694458    4.91499996    0.51999998
   17.83750153    4.91499996    0.51999998
   17.83805656    4.91499996    0.51999998
   17.83833313    4.91499996    0.53899997
   17.83889008    4.91499996    0.53899997
   17.83916664    4.91499996    0.53899997
   17.84111214    4.91499996    0.53899997
   17.84333420    4.91499996    0.55900002
   17.84361267    4.91499996    0.55900002
   17.84416771    4.91499996    0.57800001
   17.84444427    4.91499996    0.57800001
   17.84500122    4.91499996    0.57800001
   17.84527779    4.91499996    0.59700000
   17.84583473    4.91499996    0.59700000
   17.84638977    4.91499996    0.59700000
   17.84666824    4.91499996    0.57800001
   17.84722328    4.91499996    0.57800001
   17.84749985    4.91499996    0.57800001
   17.84805679    4.91499996    0.57800001
   17.84833336    4.91499996    0.57800001
   17.84889030    4.91499996    0.55900002
   17.84944534    4.91499996    0.55900002
   17.84972191    4.91499996    0.55900002
   17.85027885    4.91499996    0.57800001
   17.85055542    4.91499996    0.59700000
   17.85111237    4.91499996    0.59700000
   17.85138893    4.91499996    0.59700000
   17.85194397    4.91499996    0.59700000
   17.85222244    4.91499996    0.59700000
   17.85277748    4.91499996    0.59700000
   17.85333443    4.91499996    0.59700000
   17.85361099    4.91499996    0.61600000
   17.85416794    4.91499996    0.61600000
   17.85444450    4.91499996    0.61600000
   17.85499954    4.91499996    0.61600000
   17.85527802    4.91499996    0.59700000
   17.85583305    4.91499996    0.50099999
   17.85611153    4.91499996    0.46200001
   17.85666656    4.91499996    0.48100001
   17.85722351    4.91499996    0.57800001
   17.85750008    4.91499996    0.61600000
   17.85805511    4.91499996    0.61600000
   17.85833359    4.91499996    0.61600000
   17.85888863    4.91499996    0.61600000
   17.85916710    4.91499996    0.61600000
   17.85972214    4.91499996    0.61600000
   17.86027908    4.91499996    0.61600000
   17.86055565    4.91499996    0.61600000
   17.86111069    4.91499996    0.63599998
   17.86138916    4.91499996    0.63599998
   17.86194420    4.91499996    0.65499997
   17.86222267    4.91499996    0.65499997
   17.86277771    4.91499996    0.67400002
   17.86305618    4.91499996    0.67400002
   17.86361122    4.91499996    0.65499997
   17.86416626    4.91499996    0.65499997
   17.86444473    4.91499996    0.65499997
   17.86499977    4.91499996    0.65499997
   17.86527824    4.91499996    0.65499997
   17.86583328    4.91499996    0.65499997
   17.86638832    4.91499996    0.65499997
   17.86805534    4.91499996    0.63599998
   17.87000084    4.91499996    0.63599998
   17.87055588    4.91499996    0.63599998
   17.87083435    4.91499996    0.63599998
   17.87138939    4.91499996    0.63599998
   17.87166595    4.91499996    0.63599998
   17.87222290    4.91499996    0.63599998
   17.87249947    4.91499996    0.63599998
   17.87305641    4.91499996    0.63599998
   17.87361145    4.91499996    0.63599998
   17.87388992    4.91499996    0.63599998
   17.87444496    4.91499996    0.63599998
   17.87472153    4.91499996    0.63599998
   17.87527847    4.91499996    0.63599998
   17.87555504    4.91499996    0.63599998
   17.87611198    4.91499996    0.61600000
   17.87666702    4.91499996    0.61600000
   17.87694550    4.91499996    0.61600000
   17.87750053    4.91499996    0.59700000
   17.87777710    4.91499996    0.59700000
   17.87833405    4.91499996    0.59700000
   17.87861061    4.91499996    0.61600000
   17.87916756    4.91499996    0.59700000
   17.87972260    4.91499996    0.59700000
   17.88000107    4.91499996    0.59700000
   17.88055611    4.91499996    0.59700000
   17.88083267    4.91499996    0.59700000
   17.88138962    4.91499996    0.59700000
   17.88166618    4.91499996    0.59700000
   17.88222313    4.91499996    0.57800001
   17.88277817    4.91499996    0.57800001
   17.88305473    4.91499996    0.57800001
   17.88361168    4.91499996    0.57800001
   17.88388824    4.91499996    0.59700000
   17.88444519    4.91499996    0.59700000
   17.88472176    4.91499996    0.59700000
   17.88527679    4.91499996    0.59700000
   17.88555527    4.91499996    0.59700000
   17.88611031    4.91499996    0.59700000
   17.88666725    4.91499996    0.59700000
   17.88694382    4.91499996    0.61600000
   17.88750076    4.91499996    0.61600000
   17.88777733    4.91499996    0.61600000
   17.88833237    4.91499996    0.61600000
   17.88861084    4.91499996    0.61600000
   17.88916588    4.91499996    0.63599998
   17.88972282    4.91499996    0.63599998
   17.88999939    4.91499996    0.63599998
   17.89055634    4.91499996    0.61600000
   17.89083290    4.91499996    0.61600000
   17.89138794    4.91499996    0.61600000
   17.89194489    4.91499996    0.63599998
   17.89222145    4.91499996    0.65499997
   17.89277840    4.91499996    0.65499997
   17.89305496    4.91499996    0.65499997
   17.89472198    4.91499996    0.63599998
   17.89722252    4.91499996    0.59700000
   17.89749908    4.91499996    0.59700000
   17.89805603    4.91499996    0.59700000
   17.89833260    4.91499996    0.59700000
   17.89888954    4.91499996    0.59700000
   17.89944458    4.91499996    0.59700000
   17.89972115    4.91499996    0.57800001
   17.90027809    4.91499996    0.57800001
   17.90055466    4.91499996    0.57800001
   17.90111160    4.91499996    0.57800001
   17.90138817    4.91499996    0.57800001
   17.90194321    4.91499996    0.55900002
   17.90222168    4.91499996    0.55900002
   17.90277672    4.91499996    0.55900002
   17.90305519    4.91499996    0.55900002
   17.90361023    4.91499996    0.55900002
   17.90416718    4.91499996    0.55900002
   17.90444374    4.91499996    0.57800001
   17.90499878    4.91499996    0.55900002
   17.90527725    4.91499996    0.55900002
   17.90583229    4.91499996    0.53899997
   17.90611076    4.91499996    0.51999998
   17.90666580    4.91499996    0.50099999
   17.90694427    4.91499996    0.50099999
   17.90749931    4.91499996    0.48100001
   17.90777779    4.91499996    0.44299999
   17.90833282    4.91499996    0.40400001
   17.90861130    4.91499996    0.36600000
   17.90916634    4.91499996    0.34599999
   17.90972137    4.91499996    0.38499999
   17.90999985    4.91499996    0.38499999
   17.91055489    4.91499996    0.36600000
   17.91083336    4.91499996    0.34599999
   17.91138840    4.91499996    0.36600000
   17.91166687    4.91499996    0.38499999
   17.91222191    4.91499996    0.46200001
   17.91277695    4.91499996    0.50099999
   17.91305542    4.91499996    0.50099999
   17.91361046    4.91499996    0.48100001
   17.91388893    4.91499996    0.30800000
   17.91444397    4.91499996    0.21200000
   17.91499901    4.91499996    0.23100001
   17.91527748    4.91499996    0.26899999
   17.91583252    4.91499996    0.30800000
   17.91611099    4.91499996    0.25000000
   17.91666603    4.91499996    0.26899999
   17.91694450    4.91499996    0.30800000
   17.91749954    4.91499996    0.26899999
   17.91805458    4.91499996    0.25000000
   17.91833305    4.91499996    0.23100001
   17.91888809    4.91499996    0.25000000
   17.91916656    4.91499996    0.25000000
   17.91972160    4.91499996    0.23100001
   17.92000008    4.91499996    0.21200000
   17.92166519    4.91499996    0.09600000
   17.92416573    4.91499996    0.13400000
   17.92444420    4.91499996    0.13400000
   17.92499924    4.91499996    0.13400000
   17.92527771    4.91499996    0.13400000
   17.92583275    4.91499996    0.11500000
   17.92638779    4.91499996    0.11500000
   17.92666626    4.91499996    0.13400000
   17.92722130    4.91499996    0.13400000
   17.92749977    4.91499996    0.13400000
   17.92805481    4.91499996    0.15400000
   17.92833328    4.91499996    0.15400000
   17.92888832    4.91499996    0.15400000
   17.92944336    4.91499996    0.13400000
   17.92972183    4.91499996    0.11500000
   17.93027687    4.91499996    0.11500000
   17.93055534    4.91499996    0.11500000
   17.93111038    4.91499996    0.11500000
   17.93138885    4.91499996    0.11500000
   17.93194389    4.91499996    0.11500000
   17.93222237    4.91499996    0.13400000
   17.93277740    4.91499996    0.13400000
   17.93333244    4.91499996    0.13400000
   17.93361092    4.91499996    0.15400000
   17.93416595    4.91499996    0.17299999
   17.93444443    4.91499996    0.17299999
   17.93499947    4.91499996    0.19200000
   17.93527603    4.91499996    0.25000000
   17.93583298    4.91499996    0.28900000
   17.93610954    4.91499996    0.34599999
   17.93666649    4.91499996    0.40400001
   17.93694305    4.91499996    0.36600000
   17.93750000    4.91499996    0.30800000
   17.93805504    4.91499996    0.32699999
   17.93833160    4.91499996    0.40400001
   17.93888855    4.91499996    0.44299999
   17.93916512    4.91499996    0.44299999
   17.93972206    4.91499996    0.46200001
   17.94027710    4.91499996    0.38499999
   17.94055557    4.91499996    0.38499999
   17.94111061    4.91499996    0.40400001
   17.94138718    4.91499996    0.36600000
   17.94194412    4.91499996    0.28900000
   17.94249916    4.91499996    0.25000000
   17.94277763    4.91499996    0.28900000
   17.94333267    4.91499996    0.32699999
   17.94361115    4.91499996    0.30800000
   17.94416618    4.91499996    0.28900000
   17.94444275    4.91499996    0.28900000
   17.94499969    4.91499996    0.32699999
   17.94527626    4.91499996    0.36600000
   17.94583321    4.91499996    0.32699999
   17.94610977    4.91499996    0.34599999
   17.94666672    4.91499996    0.34599999
   17.94722176    4.91499996    0.30800000
   17.94888878    4.91499996    0.13400000
   17.95083427    4.91499996    0.07700000
   17.95138931    4.91499996    0.07700000
   17.95166779    4.91499996    0.07700000
   17.95222282    4.91499996    0.07700000
   17.95277786    4.91499996    0.07700000
   17.95305634    4.91499996    0.07700000
   17.95361137    4.91499996    0.07700000
   17.95388985    4.91499996    0.07700000
   17.95444489    4.91499996    0.07700000
   17.95472336    4.91499996    0.09600000
   17.95527840    4.91499996    0.11500000
   17.95555687    4.91499996    0.15400000
   17.95611191    4.91499996    0.23100001
   17.95666695    4.91499996    0.21200000
   17.95694542    4.91499996    0.21200000
   17.95750046    4.91499996    0.25000000
   17.95777893    4.91499996    0.30800000
   17.95833397    4.91499996    0.48100001
   17.95861244    4.91499996    0.61600000
   17.95916748    4.91499996    0.63599998
   17.95944595    4.91499996    0.63599998
   17.96000099    4.91499996    0.61600000
   17.96027946    4.91499996    0.61600000
   17.96083450    4.91499996    0.63599998
   17.96111107    4.91499996    0.63599998
   17.96166801    4.91499996    0.63599998
   17.96222305    4.91499996    0.63599998
   17.96250153    4.91499996    0.63599998
   17.96305656    4.91499996    0.61600000
   17.96333504    4.91499996    0.63599998
   17.96389008    4.91499996    0.63599998
   17.96444511    4.91499996    0.63599998
   17.96472359    4.91499996    0.63599998
   17.96527863    4.91499996    0.63599998
   17.96555710    4.91499996    0.61600000
   17.96611214    4.91499996    0.61600000
   17.96638870    4.91499996    0.61600000
   17.96694565    4.91499996    0.61600000
   17.96750069    4.91499996    0.63599998
   17.96777916    4.91499996    0.63599998
   17.96833420    4.91499996    0.63599998
   17.96861076    4.91499996    0.63599998
   17.96916771    4.91499996    0.63599998
   17.96944427    4.91499996    0.63599998
   17.97000122    4.91499996    0.63599998
   17.97055626    4.91499996    0.61600000
   17.97083473    4.91499996    0.61600000
   17.97138977    4.91499996    0.61600000
   17.97166634    4.91499996    0.61600000
   17.97222328    4.91499996    0.61600000
   17.97277832    4.91499996    0.63599998
   17.97305679    4.91499996    0.63599998
   17.97361183    4.91499996    0.63599998
   17.97389030    4.91499996    0.65499997
   17.97583389    4.91499996    0.61600000
   17.97805595    4.91499996    0.61600000
   17.97833443    4.91499996    0.63599998
   17.97888947    4.91499996    0.63599998
   17.97916794    4.91499996    0.63599998
   17.97972298    4.91499996    0.63599998
   17.98000145    4.91499996    0.61600000
   17.98055649    4.91499996    0.61600000
   17.98083305    4.91499996    0.59700000
   17.98139000    4.91499996    0.59700000
   17.98194504    4.91499996    0.59700000
   17.98222351    4.91499996    0.59700000
   17.98277855    4.91499996    0.59700000
   17.98305511    4.91499996    0.59700000
   17.98361206    4.91499996    0.59700000
   17.98388863    4.91499996    0.61600000
   17.98444557    4.91499996    0.61600000
   17.98500061    4.91499996    0.59700000
   17.98527718    4.91499996    0.59700000
   17.98583412    4.91499996    0.61600000
   17.98611069    4.91499996    0.61600000
   17.98666763    4.91499996    0.61600000
   17.98722267    4.91499996    0.61600000
   17.98750114    4.91499996    0.59700000
   17.98805618    4.91499996    0.59700000
   17.98833275    4.91499996    0.59700000
   17.98888969    4.91499996    0.59700000
   17.98916626    4.91499996    0.59700000
   17.98972321    4.91499996    0.59700000
   17.98999977    4.91499996    0.59700000
   17.99055672    4.91499996    0.59700000
   17.99111176    4.91499996    0.57800001
   17.99138832    4.91499996    0.55900002
   17.99194527    4.91499996    0.55900002
   17.99222183    4.91499996    0.53899997
   17.99277878    4.91499996    0.53899997
   17.99305534    4.91499996    0.53899997
   17.99361229    4.91499996    0.53899997
   17.99416733    4.91499996    0.53899997
   17.99444389    4.91499996    0.51999998
   17.99500084    4.91499996    0.51999998
   17.99527740    4.91499996    0.50099999
   17.99583435    4.91499996    0.50099999
   17.99638939    4.91499996    0.48100001
   17.99666786    4.91499996    0.48100001
   17.99722290    4.91499996    0.46200001
   17.99749947    4.91499996    0.46200001
   17.99805641    4.91499996    0.46200001
   17.99861145    4.91499996    0.46200001
   17.99888992    4.91499996    0.50099999
   17.99944496    4.91499996    0.51999998
   17.99972153    4.91499996    0.51999998
   18.00027847    4.91499996    0.48100001
   18.00055504    4.91499996    0.48100001
   18.00111198    4.91499996    0.48100001
   18.00277710    4.91499996    0.48100001
   18.00499916    4.91499996    0.44299999
   18.00555611    4.91499996    0.44299999
   18.00583267    4.91499996    0.44299999
   18.00638962    4.91499996    0.46200001
   18.00666618    4.91499996    0.46200001
   18.00722313    4.91499996    0.50099999
   18.00749969    4.91499996    0.50099999
   18.00805473    4.91499996    0.50099999
   18.00833321    4.91499996    0.48100001
   18.00888824    4.91499996    0.48100001
   18.00944519    4.91499996    0.48100001
   18.00972176    4.91499996    0.48100001
   18.01027870    4.91499996    0.46200001
   18.01055527    4.91499996    0.44299999
   18.01111031    4.91499996    0.44299999
   18.01138878    4.91499996    0.46200001
   18.01194382    4.91499996    0.46200001
   18.01222229    4.91499996    0.44299999
   18.01277733    4.91499996    0.42399999
   18.01333427    4.91499996    0.40400001
   18.01361084    4.91499996    0.40400001
   18.01416588    4.91499996    0.38499999
   18.01444435    4.91499996    0.38499999
   18.01499939    4.91499996    0.38499999
   18.01555634    4.91499996    0.38499999
   18.01583290    4.91499996    0.40400001
   18.01638794    4.91499996    0.40400001
   18.01666641    4.91499996    0.40400001
   18.01722145    4.91499996    0.40400001
   18.01749992    4.91499996    0.42399999
   18.01805496    4.91499996    0.42399999
   18.01861000    4.91499996    0.44299999
   18.01888847    4.91499996    0.44299999
   18.01944351    4.91499996    0.44299999
   18.01972198    4.91499996    0.42399999
   18.02027702    4.91499996    0.42399999
   18.02055550    4.91499996    0.42399999
   18.02111053    4.91499996    0.44299999
   18.02166557    4.91499996    0.44299999
   18.02194405    4.91499996    0.46200001
   18.02249908    4.91499996    0.46200001
   18.02277756    4.91499996    0.46200001
   18.02333260    4.91499996    0.48100001
   18.02361107    4.91499996    0.48100001
   18.02416611    4.91499996    0.48100001
   18.02472115    4.91499996    0.48100001
   18.02499962    4.91499996    0.48100001
   18.02555466    4.91499996    0.48100001
   18.02611160    4.91499996    0.46200001
   18.02638817    4.91499996    0.46200001
   18.02694511    4.91499996    0.46200001
   18.02722168    4.91499996    0.46200001
   18.02777672    4.91499996    0.48100001
   18.02805519    4.91499996    0.48100001
   18.02972221    4.91499996    0.48100001
   18.03194427    4.91499996    0.50099999
   18.03249931    4.91499996    0.50099999
   18.03277779    4.91499996    0.53899997
   18.03333282    4.91499996    0.55900002
   18.03361130    4.91499996    0.57800001
   18.03416634    4.91499996    0.57800001
   18.03444481    4.91499996    0.59700000
   18.03499985    4.91499996    0.61600000
   18.03555489    4.91499996    0.61600000
   18.03583336    4.91499996    0.63599998
   18.03638840    4.91499996    0.61600000
   18.03666687    4.91499996    0.61600000
   18.03722191    4.91499996    0.61600000
   18.03750038    4.91499996    0.59700000
   18.03805542    4.91499996    0.55900002
   18.03861046    4.91499996    0.55900002
   18.03888893    4.91499996    0.55900002
   18.03944397    4.91499996    0.55900002
   18.03972244    4.91499996    0.55900002
   18.04027748    4.91499996    0.57800001
   18.04055595    4.91499996    0.57800001
   18.04111099    4.91499996    0.57800001
   18.04138756    4.91499996    0.57800001
   18.04194450    4.91499996    0.53899997
   18.04249954    4.91499996    0.51999998
   18.04277802    4.91499996    0.50099999
   18.04333305    4.91499996    0.51999998
   18.04361153    4.91499996    0.53899997
   18.04416656    4.91499996    0.51999998
   18.04444313    4.91499996    0.51999998
   18.04500008    4.91499996    0.51999998
   18.04555511    4.91499996    0.51999998
   18.04583359    4.91499996    0.50099999
   18.04638863    4.91499996    0.48100001
   18.04666710    4.91499996    0.48100001
   18.04722214    4.91499996    0.48100001
   18.04749870    4.91499996    0.48100001
   18.04805565    4.91499996    0.48100001
   18.04833221    4.91499996    0.48100001
   18.04888916    4.91499996    0.44299999
   18.04944420    4.91499996    0.42399999
   18.04972076    4.91499996    0.44299999
   18.05027771    4.91499996    0.46200001
   18.05055428    4.91499996    0.46200001
   18.05111122    4.91499996    0.48100001
   18.05138779    4.91499996    0.50099999
   18.05194283    4.91499996    0.51999998
   18.05249977    4.91499996    0.51999998
   18.05277634    4.91499996    0.53899997
   18.05333328    4.91499996    0.53899997
   18.05360985    4.91499996    0.53899997
   18.05416679    4.91499996    0.53899997
   18.05444336    4.91499996    0.53899997
   18.05499840    4.91499996    0.55900002
   18.05666542    4.91499996    0.55900002
   18.05888748    4.91499996    0.50099999
   18.05944443    4.91499996    0.51999998
   18.05972099    4.91499996    0.51999998
   18.06027794    4.91499996    0.51999998
   18.06083298    4.91499996    0.48100001
   18.06110954    4.91499996    0.46200001
   18.06166649    4.91499996    0.44299999
   18.06222153    4.91499996    0.44299999
   18.06250000    4.91499996    0.44299999
   18.06305504    4.91499996    0.44299999
   18.06333351    4.91499996    0.44299999
   18.06388855    4.91499996    0.44299999
   18.06444359    4.91499996    0.44299999
   18.06472206    4.91499996    0.42399999
   18.06527710    4.91499996    0.42399999
   18.06583214    4.91499996    0.40400001
   18.06611061    4.91499996    0.42399999
   18.06666756    4.91499996    0.44299999
   18.06722260    4.91499996    0.44299999
   18.06750107    4.91499996    0.46200001
   18.06805611    4.91499996    0.48100001
   18.06833458    4.91499996    0.48100001
   18.06888962    4.91499996    0.48100001
   18.06944466    4.91499996    0.48100001
   18.06972313    4.91499996    0.48100001
   18.07027817    4.91499996    0.48100001
   18.07055664    4.91499996    0.48100001
   18.07111168    4.91499996    0.46200001
   18.07166672    4.91499996    0.46200001
   18.07194519    4.91499996    0.44299999
   18.07250023    4.91499996    0.44299999
   18.07277870    4.91499996    0.42399999
   18.07333374    4.91499996    0.40400001
   18.07389069    4.91499996    0.38499999
   18.07416725    4.91499996    0.36600000
   18.07472229    4.91499996    0.36600000
   18.07527924    4.91499996    0.36600000
   18.07555580    4.91499996    0.36600000
   18.07611275    4.91499996    0.38499999
   18.07666779    4.91499996    0.38499999
   18.07694626    4.91499996    0.36600000
   18.07750130    4.91499996    0.36600000
   18.07777786    4.91499996    0.36600000
   18.07833481    4.91499996    0.34599999
   18.07888985    4.91499996    0.36600000
   18.07916832    4.91499996    0.36600000
   18.07972336    4.91499996    0.36600000
   18.08027840    4.91499996    0.36600000
   18.08055687    4.91499996    0.32699999
   18.08111191    4.91499996    0.32699999
   18.08166695    4.91499996    0.30800000
   18.08194542    4.91499996    0.28900000
   18.08361244    4.91499996    0.28900000
   18.08583450    4.91499996    0.26899999
   18.08638954    4.91499996    0.28900000
   18.08694458    4.91499996    0.28900000
   18.08722305    4.91499996    0.28900000
   18.08777809    4.91499996    0.28900000
   18.08805656    4.91499996    0.26899999
   18.08861160    4.91499996    0.26899999
   18.08916664    4.91499996    0.26899999
   18.08944511    4.91499996    0.25000000
   18.09000015    4.91499996    0.25000000
   18.09055710    4.91499996    0.25000000
   18.09083366    4.91499996    0.23100001
   18.09138870    4.91499996    0.23100001
   18.09194565    4.91499996    0.23100001
   18.09250069    4.91499996    0.23100001
   18.09305573    4.91499996    0.23100001
   18.09361267    4.91499996    0.21200000
   18.09444427    4.91499996    0.21200000
   18.09500122    4.91499996    0.21200000
   18.09555626    4.91499996    0.21200000
   18.09611130    4.91499996    0.19200000
   18.09666824    4.91499996    0.19200000
   18.09749985    4.91499996    0.19200000
   18.09805679    4.91499996    0.17299999
   18.09861183    4.91499996    0.17299999
   18.09916687    4.91499996    0.17299999
   18.10000038    4.91499996    0.17299999
   18.10055542    4.91499996    0.19200000
   18.10111237    4.91499996    0.17299999
   18.10166740    4.91499996    0.17299999
   18.10250092    4.91499996    0.15400000
   18.10305595    4.91499996    0.15400000
   18.10361099    4.91499996    0.15400000
   18.10416794    4.91499996    0.15400000
   18.10499954    4.91499996    0.17299999
   18.10555649    4.91499996    0.15400000
   18.10611153    4.91499996    0.17299999
   18.10666656    4.91499996    0.17299999
   18.10750008    4.91499996    0.17299999
   18.10805511    4.91499996    0.17299999
   18.10861206    4.91499996    0.17299999
   18.24388885    4.91499996    0.15400000
   18.24444389    4.91499996    0.15400000
   18.25166702    4.91499996    0.11500000
   18.25361061    4.91499996    0.13400000
   18.25388908    4.91499996    0.13400000
   18.25444412    4.91499996    0.13400000
   18.25527763    4.91499996    0.11500000
   18.25777817    4.91499996    0.13400000
   18.25805473    4.91499996    0.13400000
   18.25888824    4.91499996    0.13400000
   18.26138878    4.91499996    0.15400000
   18.26194382    4.91499996    0.15400000
   18.26222229    4.91499996    0.15400000
   18.26277733    4.91499996    0.15400000
   18.26333427    4.91499996    0.15400000
   18.26361084    4.91499996    0.15400000
   18.26416588    4.91499996    0.17299999
   18.26444435    4.91499996    0.17299999
   18.26499939    4.91499996    0.17299999
   18.26555634    4.91499996    0.19200000
   18.26583290    4.91499996    0.19200000
   18.26638794    4.91499996    0.19200000
   18.26694489    4.91499996    0.19200000
   18.26722145    4.91499996    0.17299999
   18.26777840    4.91499996    0.17299999
   18.26833344    4.91499996    0.17299999
   18.26888847    4.91499996    0.17299999
   18.26944351    4.91499996    0.19200000
   18.27000046    4.91499996    0.19200000
   18.27083397    4.91499996    0.21200000
   18.27138901    4.91499996    0.19200000
   18.27194405    4.91499996    0.19200000
   18.27249908    4.91499996    0.19200000
   18.27333260    4.91499996    0.19200000
   18.27388954    4.91499996    0.19200000
   18.27444458    4.91499996    0.21200000
   18.27499962    4.91499996    0.19200000
   18.27583313    4.91499996    0.19200000
   18.27638817    4.91499996    0.19200000
   18.27694511    4.91499996    0.19200000
   18.27750015    4.91499996    0.21200000
   18.27833366    4.91499996    0.19200000
   18.27888870    4.91499996    0.21200000
   18.27944374    4.91499996    0.21200000
   18.28000069    4.91499996    0.23100001
   18.28083229    4.91499996    0.23100001
   18.28138924    4.91499996    0.23100001
   18.28194427    4.91499996    0.23100001
   18.28249931    4.91499996    0.21200000
   18.28333282    4.91499996    0.21200000
   18.28388786    4.91499996    0.21200000
   18.28444481    4.91499996    0.21200000
   18.28499985    4.91499996    0.21200000
   18.28555489    4.91499996    0.23100001
   18.28638840    4.91499996    0.25000000
   18.31416512    4.91499996    0.94400001
   18.31611061    4.91499996    0.90600002
   18.31666756    4.91499996    0.90600002
   18.31916809    4.91499996    0.80900002
   18.31972313    4.91499996    0.79000002
   18.32083511    4.91499996    0.75099999
   18.32250023    4.91499996    0.73199999
   18.32527924    4.91499996    0.79000002
   18.32555580    4.91499996    0.79000002
   18.32694626    4.91499996    0.77100003
   18.32888985    4.91499996    0.75099999
   18.33166695    4.91499996    0.69300002
   18.33305550    4.91499996    0.69300002
   18.33472252    4.91499996    0.69300002
   18.33555603    4.91499996    0.69300002
   18.33805656    4.91499996    0.67400002
   18.33861160    4.91499996    0.69300002
   18.33944511    4.91499996    0.67400002
   18.34027863    4.91499996    0.65499997
   18.36583328    4.91499996    0.63599998
   18.36750031    4.91499996    0.63599998
   18.36916733    4.91499996    0.59700000
   18.37083435    4.91499996    0.57800001
   18.37249947    4.91499996    0.53899997
   18.37416649    4.91499996    0.55900002
   18.37583351    4.91499996    0.55900002
   18.37750053    4.91499996    0.53899997
   18.37916756    4.91499996    0.61600000
   18.38055611    4.91499996    0.61600000
   18.38222313    4.91499996    0.57800001
   18.38388824    4.91499996    0.61600000
   18.38555527    4.91499996    0.63599998
   18.38722229    4.91499996    0.71300000
   18.38888931    4.91499996    0.75099999
   18.39055634    4.91499996    0.77100003
   18.39222145    4.91499996    0.79000002
   18.39388847    4.91499996    0.77100003
   18.39555550    4.91499996    0.79000002
   18.39722252    4.91499996    0.80900002
   18.39888954    4.91499996    0.80900002
   18.40055466    4.91499996    0.63599998
   18.40222168    4.91499996    0.30800000
   18.40388870    4.91499996    0.46200001
   18.40555573    4.91499996    0.48100001
   18.40722275    4.91499996    0.50099999
   18.40888786    4.91499996    0.77100003
   18.41055489    4.91499996    0.82800001
   18.41222191    4.91499996    0.77100003
   18.41388893    4.91499996    0.71300000
   18.41555595    4.91499996    0.73199999
   18.41722107    4.91499996    0.75099999
   18.41860962    4.91499996    0.73199999
   18.42027664    4.91499996    0.77100003
   18.42194366    4.91499996    0.79000002
   18.42361069    4.91499996    0.75099999
   18.42527771    4.91499996    0.73199999
   18.42694473    4.91499996    0.77100003
   18.42860985    4.91499996    0.71300000
   18.43027687    4.91499996    0.75099999
   18.43194389    4.91499996    0.71300000
   18.43361092    4.91499996    0.67400002
   18.43527603    4.91499996    0.65499997
   18.43694305    4.91499996    0.63599998
   18.43861008    4.91499996    0.61600000
   18.44027710    4.91499996    0.61600000
   18.44194412    4.91499996    0.61600000
   18.44361115    4.91499996    0.59700000
   18.44527626    4.91499996    0.59700000
   18.44694328    4.91499996    0.61600000
   18.44861031    4.91499996    0.57800001
   18.45027924    4.91499996    0.57800001
   18.45194435    4.91499996    0.57800001
   18.45361137    4.91499996    0.53899997
   18.45527840    4.91499996    0.53899997
   18.45666695    4.91499996    0.55900002
   18.45833397    4.91499996    0.53899997
   18.46000099    4.91499996    0.53899997
   18.46166801    4.91499996    0.51999998
   18.46333504    4.91499996    0.53899997
   18.46500015    4.91499996    0.55900002
   18.46666718    4.91499996    0.57800001
   18.46833420    4.91499996    0.55900002
   18.47000122    4.91499996    0.51999998
   18.47166634    4.91499996    0.46200001
   18.47333336    4.91499996    0.42399999
   18.47500038    4.91499996    0.40400001
   18.47666740    4.91499996    0.38499999
   18.47833443    4.91499996    0.36600000
   18.48000145    4.91499996    0.36600000
   18.48166656    4.91499996    0.36600000
   18.48333359    4.91499996    0.36600000
   18.48500061    4.91499996    0.36600000
   18.48666763    4.91499996    0.36600000
   18.48833275    4.91499996    0.36600000
   18.48972321    4.91499996    0.34599999
   18.49138832    4.91499996    0.32699999
   18.49305534    4.91499996    0.30800000
   18.49472237    4.91499996    0.30800000
   18.49638939    4.91499996    0.28900000
   18.49805641    4.91499996    0.28900000
   18.49972153    4.91499996    0.26899999
   18.50138855    4.91499996    0.26899999
   18.50305557    4.91499996    0.26899999
   18.50472260    4.91499996    0.26899999
   18.50638962    4.91499996    0.26899999
   18.50805473    4.91499996    0.26899999
   18.50972176    4.91499996    0.26899999
   18.51138878    4.91499996    0.26899999
   18.51305580    4.91499996    0.26899999
   18.51472282    4.91499996    0.28900000
   18.51638794    4.91499996    0.30800000
   18.51805496    4.91499996    0.32699999
   18.51972198    4.91499996    0.26899999
   18.52138901    4.91499996    0.26899999
   18.52305603    4.91499996    0.30800000
   18.52472115    4.91499996    0.34599999
   18.52638817    4.91499996    0.34599999
   18.52777672    4.91499996    0.34599999
   18.52944374    4.91499996    0.36600000
   18.53111076    4.91499996    0.40400001
   18.53277779    4.91499996    0.40400001
   18.53444481    4.91499996    0.44299999
   18.53610992    4.91499996    0.44299999
   18.53777695    4.91499996    0.42399999
   18.53944397    4.91499996    0.40400001
   18.54111099    4.91499996    0.40400001
   18.54277802    4.91499996    0.36600000
   18.54416656    4.91499996    0.36600000
   18.54583359    4.91499996    0.34599999
   18.54749870    4.91499996    0.36600000
   18.54916573    4.91499996    0.36600000
   18.55083275    4.91499996    0.30800000
   18.55249977    4.91499996    0.28900000
   18.55416679    4.91499996    0.26899999
   18.55583191    4.91499996    0.28900000
   18.55749893    4.91499996    0.30800000
   18.55888748    4.91499996    0.32699999
   18.56055450    4.91499996    0.30800000
   18.56222153    4.91499996    0.30800000
   18.56388855    4.91499996    0.34599999
   18.56555557    4.91499996    0.30800000
   18.56722260    4.91499996    0.30800000
   18.56888962    4.91499996    0.28900000
   18.57055664    4.91499996    0.30800000
   18.57222366    4.91499996    0.30800000
   18.57389069    4.91499996    0.30800000
   18.57527924    4.91499996    0.30800000
   18.57694626    4.91499996    0.28900000
   18.57861137    4.91499996    0.30800000
   18.58027840    4.91499996    0.36600000
   18.58194542    4.91499996    0.40400001
   18.58361244    4.91499996    0.40400001
   18.58527756    4.91499996    0.40400001
   18.58694458    4.91499996    0.44299999
   18.58861160    4.91499996    0.42399999
   18.59027863    4.91499996    0.40400001
   18.59166718    4.91499996    0.38499999
   18.59333420    4.91499996    0.34599999
   18.59500122    4.91499996    0.32699999
   18.59666824    4.91499996    0.30800000
   18.59833336    4.91499996    0.30800000
   18.60000038    4.91499996    0.30800000
   18.60166740    4.91499996    0.30800000
   18.60333443    4.91499996    0.28900000
   18.60499954    4.91499996    0.28900000
   18.60666656    4.91499996    0.30800000
   18.60805511    4.91499996    0.32699999
   18.60972214    4.91499996    0.32699999
   18.61138916    4.91499996    0.34599999
   18.61305618    4.91499996    0.34599999
   18.61472321    4.91499996    0.34599999
   18.61638832    4.91499996    0.34599999
   18.61805534    4.91499996    0.34599999
   18.61972237    4.91499996    0.36600000
   18.62111092    4.91499996    0.34599999
   18.62277794    4.91499996    0.34599999
   18.62444496    4.91499996    0.36600000
   18.62611198    4.91499996    0.36600000
   18.62777710    4.91499996    0.36600000
   18.62944412    4.91499996    0.38499999
   18.63111115    4.91499996    0.38499999
   18.63277817    4.91499996    0.36600000
   18.63444519    4.91499996    0.36600000
   18.63583374    4.91499996    0.34599999
   18.63750076    4.91499996    0.34599999
   18.63916588    4.91499996    0.32699999
   18.64083290    4.91499996    0.32699999
   18.64249992    4.91499996    0.32699999
   18.64416695    4.91499996    0.30800000
   18.64583397    4.91499996    0.28900000
   18.64749908    4.91499996    0.28900000
   18.64916611    4.91499996    0.26899999
   18.65055466    4.91499996    0.28900000
   18.65222168    4.91499996    0.28900000
   18.65388870    4.91499996    0.28900000
   18.65555573    4.91499996    0.28900000
   18.65722275    4.91499996    0.28900000
   18.65888786    4.91499996    0.30800000
   18.66055489    4.91499996    0.30800000
   18.66222191    4.91499996    0.30800000
   18.66388893    4.91499996    0.30800000
   18.66527748    4.91499996    0.32699999
   18.66694450    4.91499996    0.34599999
   18.66860962    4.91499996    0.36600000
   18.67027664    4.91499996    0.38499999
   18.67194366    4.91499996    0.40400001
   18.67361069    4.91499996    0.38499999
   18.67527771    4.91499996    0.40400001
   18.67694473    4.91499996    0.40400001
   18.67833328    4.91499996    0.38499999
   18.68000031    4.91499996    0.38499999
   18.68166542    4.91499996    0.36600000
   18.68333244    4.91499996    0.36600000
   18.68499947    4.91499996    0.36600000
   18.68666649    4.91499996    0.34599999
   18.68833160    4.91499996    0.34599999
   18.68999863    4.91499996    0.34599999
   18.69166565    4.91499996    0.32699999
   18.69333267    4.91499996    0.34599999
   18.69472122    4.91499996    0.34599999
   18.69638824    4.91499996    0.34599999
   18.69805527    4.91499996    0.36600000
   18.69972038    4.91499996    0.34599999
   18.70138931    4.91499996    0.32699999
   18.70305634    4.91499996    0.30800000
   18.70472336    4.91499996    0.30800000
   18.70639038    4.91499996    0.30800000
   18.70805550    4.91499996    0.28900000
   18.70972252    4.91499996    0.28900000
   18.71138954    4.91499996    0.28900000
   18.71277809    4.91499996    0.28900000
   18.71305656    4.91499996    0.28900000
   18.71361160    4.91499996    0.28900000
   18.71500015    4.91499996    0.30800000
   18.71722221    4.91499996    0.30800000
   18.71750069    4.91499996    0.32699999
   18.71944427    4.91499996    0.32699999
   18.72083473    4.91499996    0.34599999
   18.91444397    4.91499996    0.46200001
   18.91638756    4.91499996    0.44299999
   18.91805458    4.91499996    0.40400001
   18.91944313    4.91499996    0.36600000
   18.92111015    4.91499996    0.36600000
   18.92277718    4.91499996    0.32699999
   18.92444420    4.91499996    0.28900000
   18.92611122    4.91499996    0.32699999
   18.92777634    4.91499996    0.30800000
   18.92944336    4.91499996    0.28900000
   18.93111038    4.91499996    0.26899999
   18.93277740    4.91499996    0.25000000
   18.93444443    4.91499996    0.25000000
   18.93610954    4.91499996    0.21200000
   18.93777657    4.91499996    0.19200000
   18.93944359    4.91499996    0.17299999
   18.94111061    4.91499996    0.15400000
   18.94277763    4.91499996    0.13400000
   18.94444275    4.91499996    0.11500000
   18.94583321    4.91499996    0.11500000
   18.94749832    4.91499996    0.13400000
   18.94916534    4.91499996    0.15400000
   18.95083427    4.91499996    0.15400000
   18.95250130    4.91499996    0.13400000
   18.95416832    4.91499996    0.09600000
   18.95583344    4.91499996    0.07700000
   18.95750046    4.91499996    0.09600000
   18.95916748    4.91499996    0.11500000
   18.96055603    4.91499996    0.13400000
   18.96222305    4.91499996    0.11500000
   18.96389008    4.91499996    0.09600000
   18.96555710    4.91499996    0.09600000
   18.96722221    4.91499996    0.09600000
   18.96888924    4.91499996    0.09600000
   18.97055626    4.91499996    0.09600000
   18.97222328    4.91499996    0.09600000
   18.97389030    4.91499996    0.09600000
   18.97555542    4.91499996    0.09600000
   18.97722244    4.91499996    0.09600000
   18.97861099    4.91499996    0.09600000
   18.98027802    4.91499996    0.09600000
   18.98194504    4.91499996    0.09600000
   18.98361206    4.91499996    0.07700000
   18.98527718    4.91499996    0.09600000
   18.98694420    4.91499996    0.09600000
   18.98861122    4.91499996    0.11500000
   18.99027824    4.91499996    0.09600000
   18.99194527    4.91499996    0.07700000
   18.99333382    4.91499996    0.07700000
   18.99500084    4.91499996    0.09600000
   18.99666786    4.91499996    0.11500000
   18.99833298    4.91499996    0.11500000
   19.00000000    4.91499996    0.09600000
   19.00166702    4.91499996    0.09600000
   19.00333405    4.91499996    0.09600000
   19.00499916    4.91499996    0.07700000
   19.00666618    4.91499996    0.07700000
   19.00833321    4.91499996    0.07700000
   19.00972176    4.91499996    0.07700000
   19.01138878    4.91499996    0.07700000
   19.01305580    4.91499996    0.07700000
   19.01472282    4.91499996    0.07700000
   19.01638794    4.91499996    0.07700000
   19.01805496    4.91499996    0.07700000
   19.01972198    4.91499996    0.05700000
   19.02138901    4.91499996    0.03800000
   19.02305603    4.91499996    0.03800000
   19.02472115    4.91499996    0.03800000
   19.02638817    4.91499996    0.03800000
   19.02777672    4.91499996    0.03800000
   19.02944374    4.91499996    0.03800000
   19.03111076    4.91499996    0.03800000
   19.03277779    4.91499996    0.03800000
   19.03444481    4.91499996    0.01900000
   19.03610992    4.91499996    0.01900000
   19.03777695    4.91499996    0.01900000
   19.03944397    4.91499996    0.01900000
   19.04111099    4.91499996    0.01900000
   19.04277802    4.91499996    0.01900000
   19.04416656    4.91499996    0.01900000
   19.04583359    4.91499996    0.01900000
   19.04749870    4.91499996    0.01900000
   19.04916573    4.91499996    0.01900000
   19.05083275    4.91499996    0.01900000
   19.06722260    4.91499996    0.01900000
